#SUBARU CENTER	
#Wavelength (A)	%T
25000.0  0.167226106
24998.00049  0.198863849
24996.00098  0.184924126
24993.99902  0.186697468
24991.99951  0.186591625
24990.0  0.189534754
24988.00049  0.188232347
24986.00098  0.191572741
24983.99902  0.1883993
24981.99951  0.191733986
24980.0  0.18869327
24978.00049  0.191303372
24976.00098  0.203169182
24973.99902  0.197602525
24971.99951  0.195408285
24970.0  0.189583391
24968.00049  0.192605853
24966.00098  0.214806244
24963.99902  0.189719483
24961.99951  0.210216358
24960.0  0.210267931
24958.00049  0.213233262
24956.00098  0.210577488
24953.99902  0.216393575
24951.99951  0.229346246
24950.0  0.20925954
24948.00049  0.223164395
24946.00098  0.2190568
24943.99902  0.224783361
24941.99951  0.229503244
24940.0  0.230461761
24938.00049  0.235869661
24936.00098  0.231355548
24933.99902  0.239122659
24931.99951  0.23048082
24930.0  0.234986275
24928.00049  0.23764658
24926.00098  0.248210385
24923.99902  0.246553332
24921.99951  0.250347704
24920.0  0.253018677
24918.00049  0.251128972
24916.00098  0.254741877
24913.99902  0.253778786
24911.99951  0.254318625
24910.0  0.262966007
24908.00049  0.25734818
24906.00098  0.260083735
24903.99902  0.26035589
24901.99951  0.273297161
24900.0  0.274979472
24898.00049  0.269475371
24896.00098  0.277273446
24893.99902  0.274451613
24891.99951  0.277115345
24890.0  0.279251754
24888.00049  0.281224549
24886.00098  0.286395133
24883.99902  0.293624878
24881.99951  0.297422111
24880.0  0.288695753
24878.00049  0.289347321
24876.00098  0.301899523
24873.99902  0.293281347
24871.99951  0.305168062
24870.0  0.30776158
24868.00049  0.308700681
24866.00098  0.303555906
24863.99902  0.314559013
24861.99951  0.315459698
24860.0  0.320583731
24858.00049  0.325275898
24856.00098  0.322669625
24853.99902  0.330524713
24851.99951  0.329986692
24850.0  0.333209276
24848.00049  0.34427619
24846.00098  0.338109016
24843.99902  0.34131822
24841.99951  0.358433992
24840.0  0.358330697
24838.00049  0.343881279
24836.00098  0.352098435
24833.99902  0.350061953
24831.99951  0.366055042
24830.0  0.364342481
24828.00049  0.361805499
24826.00098  0.373989761
24823.99902  0.369028598
24821.99951  0.386770964
24820.0  0.378138453
24818.00049  0.394465685
24816.00098  0.390410602
24813.99902  0.386870652
24811.99951  0.393200249
24810.0  0.401159614
24808.00049  0.409874588
24806.00098  0.411525309
24803.99902  0.416793823
24801.99951  0.41098091
24800.0  0.417195022
24798.00049  0.425126225
24796.00098  0.429304034
24793.99902  0.422295272
24791.99951  0.429199904
24790.0  0.43526265
24788.00049  0.446437717
24786.00098  0.4415811
24783.99902  0.44171986
24781.99951  0.460306644
24780.0  0.457310319
24778.00049  0.461839318
24776.00098  0.463167101
24773.99902  0.464027971
24771.99951  0.490513623
24770.0  0.472428054
24768.00049  0.482535005
24766.00098  0.491938174
24763.99902  0.484312981
24761.99951  0.506878436
24760.0  0.506513119
24758.00049  0.509939432
24756.00098  0.507148147
24753.99902  0.510495186
24751.99951  0.518278241
24750.0  0.52295202
24748.00049  0.533924818
24746.00098  0.541316569
24743.99902  0.548326731
24741.99951  0.555220366
24740.0  0.539396882
24738.00049  0.547389269
24736.00098  0.560197949
24733.99902  0.574082315
24731.99951  0.575857639
24730.0  0.574922979
24728.00049  0.583023191
24726.00098  0.591124892
24723.99902  0.584885538
24721.99951  0.597756028
24720.0  0.605130673
24718.00049  0.617065966
24716.00098  0.621821702
24713.99902  0.628866136
24711.99951  0.626512349
24710.0  0.632520616
24708.00049  0.641831398
24706.00098  0.649019182
24703.99902  0.656450331
24701.99951  0.670625567
24700.0  0.671575248
24698.00049  0.678438425
24696.00098  0.676599443
24693.99902  0.692856014
24691.99951  0.690023422
24690.0  0.701651514
24688.00049  0.707739174
24686.00098  0.715188325
24683.99902  0.715358257
24681.99951  0.727834821
24680.0  0.735071898
24678.00049  0.749293208
24676.00098  0.747095823
24673.99902  0.751490533
24671.99951  0.759738207
24670.0  0.774424315
24668.00049  0.787142038
24666.00098  0.788103879
24663.99902  0.798535705
24661.99951  0.808735192
24660.0  0.815604091
24658.00049  0.816815436
24656.00098  0.826904833
24653.99902  0.831365049
24651.99951  0.844162703
24650.0  0.854727507
24648.00049  0.8579458
24646.00098  0.867530227
24643.99902  0.870542109
24641.99951  0.888183415
24640.0  0.88781172
24638.00049  0.91443944
24636.00098  0.901427984
24633.99902  0.914127827
24631.99951  0.921368897
24630.0  0.939841449
24628.00049  0.946963131
24626.00098  0.97581625
24623.99902  0.974099338
24621.99951  0.981971264
24620.0  0.993117034
24618.00049  0.994206488
24616.00098  1.013851166
24613.99902  1.028211832
24611.99951  1.044248343
24610.0  1.035654545
24608.00049  1.053934097
24606.00098  1.078618288
24603.99902  1.079734325
24601.99951  1.100828648
24600.0  1.09261632
24598.00049  1.100491405
24596.00098  1.134235263
24593.99902  1.160458922
24591.99951  1.146790266
24590.0  1.16157937
24588.00049  1.177993894
24586.00098  1.196810246
24583.99902  1.224470735
24581.99951  1.214875817
24580.0  1.216817737
24578.00049  1.239472508
24576.00098  1.260740638
24573.99902  1.260398149
24571.99951  1.290127873
24570.0  1.299690962
24568.00049  1.318212152
24566.00098  1.330342889
24563.99902  1.34077239
24561.99951  1.351272821
24560.0  1.371576309
24558.00049  1.382203698
24556.00098  1.40347755
24553.99902  1.403245091
24551.99951  1.431574821
24550.0  1.450168967
24548.00049  1.454796791
24546.00098  1.472057462
24543.99902  1.48232305
24541.99951  1.517768741
24540.0  1.535952091
24538.00049  1.54848206
24536.00098  1.558371663
24533.99902  1.581089377
24531.99951  1.590605021
24530.0  1.620602965
24528.00049  1.624555111
24526.00098  1.655584931
24523.99902  1.676745534
24521.99951  1.686195135
24520.0  1.709961176
24518.00049  1.721516252
24516.00098  1.744524956
24513.99902  1.770202041
24511.99951  1.797733784
24510.0  1.809630513
24508.00049  1.83516717
24506.00098  1.845892549
24503.99902  1.867805481
24501.99951  1.894306421
24500.0  1.921782613
24498.00049  1.938465595
24496.00098  1.956502914
24493.99902  1.982233167
24491.99951  2.003131151
24490.0  2.03082633
24488.00049  2.052542448
24486.00098  2.081878185
24483.99902  2.092609644
24481.99951  2.118480444
24480.0  2.14730835
24478.00049  2.180520058
24476.00098  2.202539444
24473.99902  2.216105461
24471.99951  2.252470255
24470.0  2.278511524
24468.00049  2.308029413
24466.00098  2.328284264
24463.99902  2.353828192
24461.99951  2.385737658
24460.0  2.417163134
24458.00049  2.441236019
24456.00098  2.496706486
24453.99902  2.497055531
24451.99951  2.530332088
24450.0  2.559127808
24448.00049  2.59606123
24446.00098  2.627071381
24443.99902  2.654360056
24441.99951  2.694708824
24440.0  2.716558218
24438.00049  2.75390625
24436.00098  2.782932043
24433.99902  2.820088625
24431.99951  2.845773935
24430.0  2.891677856
24428.00049  2.91387558
24426.00098  2.959555864
24423.99902  2.986116171
24421.99951  3.038001776
24420.0  3.06916666
24418.00049  3.103214502
24416.00098  3.144499302
24413.99902  3.187375784
24411.99951  3.221874237
24410.0  3.255973339
24408.00049  3.300842285
24406.00098  3.339749575
24403.99902  3.38444519
24401.99951  3.415130138
24400.0  3.473568678
24398.00049  3.511248589
24396.00098  3.545338392
24393.99902  3.595925093
24391.99951  3.644248962
24390.0  3.681347132
24388.00049  3.724953651
24386.00098  3.779244423
24383.99902  3.822597027
24381.99951  3.870975494
24380.0  3.905943394
24378.00049  3.959232569
24376.00098  4.018702507
24373.99902  4.075645447
24371.99951  4.114548206
24370.0  4.171383858
24368.00049  4.22675848
24366.00098  4.277441502
24363.99902  4.327032089
24361.99951  4.380226135
24360.0  4.438479424
24358.00049  4.497426033
24356.00098  4.559681892
24353.99902  4.610394001
24351.99951  4.681523323
24350.0  4.731506348
24348.00049  4.809237003
24346.00098  4.849544048
24343.99902  4.925788403
24341.99951  4.975428581
24340.0  5.059830666
24338.00049  5.111058235
24336.00098  5.177165508
24333.99902  5.259302616
24331.99951  5.324510098
24330.0  5.393146515
24328.00049  5.459926605
24326.00098  5.517215729
24323.99902  5.588081837
24321.99951  5.676291943
24320.0  5.735118389
24318.00049  5.82159996
24316.00098  5.889484882
24313.99902  5.986674786
24311.99951  6.049816132
24310.0  6.135118008
24308.00049  6.210268974
24306.00098  6.279755592
24303.99902  6.385532856
24301.99951  6.44908762
24300.0  6.546501637
24298.00049  6.629641533
24296.00098  6.714516163
24293.99902  6.800522804
24291.99951  6.892922401
24290.0  6.979850769
24288.00049  7.090166092
24286.00098  7.164710999
24283.99902  7.265884399
24281.99951  7.375939369
24280.0  7.476320744
24278.00049  7.576044083
24276.00098  7.661673546
24273.99902  7.785476208
24271.99951  7.864402771
24270.0  7.976454735
24268.00049  8.069472313
24266.00098  8.195270538
24263.99902  8.294380188
24261.99951  8.425183296
24260.0  8.530311584
24258.00049  8.661876678
24256.00098  8.763979912
24253.99902  8.887440681
24251.99951  9.003778458
24250.0  9.116627693
24248.00049  9.267928123
24246.00098  9.368232727
24243.99902  9.516069412
24241.99951  9.614011765
24240.0  9.78298378
24238.00049  9.893619537
24236.00098  10.05757427
24233.99902  10.1707983
24231.99951  10.31126213
24230.0  10.45899296
24228.00049  10.6166687
24226.00098  10.75624847
24223.99902  10.89640808
24221.99951  11.06126595
24220.0  11.18772316
24218.00049  11.36109829
24216.00098  11.48985958
24213.99902  11.67474937
24211.99951  11.8210268
24210.0  11.99108601
24208.00049  12.15090084
24206.00098  12.33463383
24203.99902  12.49056721
24201.99951  12.67804527
24200.0  12.83871078
24198.00049  13.03380394
24196.00098  13.23612976
24193.99902  13.38436604
24191.99951  13.5901432
24190.0  13.75497627
24188.00049  13.96460533
24186.00098  14.15103722
24183.99902  14.37385941
24181.99951  14.54891109
24180.0  14.78279686
24178.00049  14.96441555
24176.00098  15.20065784
24173.99902  15.3844595
24171.99951  15.60891247
24170.0  15.82462215
24168.00049  16.03391266
24166.00098  16.26955032
24163.99902  16.46401405
24161.99951  16.71881676
24160.0  16.93556976
24158.00049  17.20838547
24156.00098  17.40117073
24153.99902  17.67779922
24151.99951  17.89204407
24150.0  18.16286659
24148.00049  18.39553261
24146.00098  18.65808678
24143.99902  18.95159721
24141.99951  19.19119263
24140.0  19.46408081
24138.00049  19.70009613
24136.00098  20.00472641
24133.99902  20.24091339
24131.99951  20.55413818
24130.0  20.81278229
24128.00049  21.12872314
24126.00098  21.37856102
24123.99902  21.70067596
24121.99951  21.9835434
24120.0  22.29038239
24118.00049  22.56269646
24116.00098  22.86944199
24113.99902  23.1933403
24111.99951  23.47534561
24110.0  23.84946442
24108.00049  24.13329124
24106.00098  24.49186897
24103.99902  24.75418091
24101.99951  25.13770485
24100.0  25.4461937
24098.00049  25.8233242
24096.00098  26.13759613
24093.99902  26.51391411
24091.99951  26.83754349
24090.0  27.21899986
24088.00049  27.57916832
24086.00098  27.91292381
24083.99902  28.31326675
24081.99951  28.62332535
24080.0  29.03902245
24078.00049  29.38122177
24076.00098  29.83349609
24073.99902  30.17615128
24071.99951  30.61715889
24070.0  30.96204185
24068.00049  31.41490746
24066.00098  31.78760719
24063.99902  32.19803619
24061.99951  32.5891037
24060.0  33.01888275
24058.00049  33.45841599
24056.00098  33.82246399
24053.99902  34.3013649
24051.99951  34.67694092
24050.0  35.16638947
24048.00049  35.52233124
24046.00098  36.01100922
24043.99902  36.43242264
24041.99951  36.918293
24040.0  37.33310699
24038.00049  37.82194901
24036.00098  38.25406265
24033.99902  38.69638062
24031.99951  39.15382004
24030.0  39.55074692
24028.00049  40.10846329
24026.00098  40.49717331
24023.99902  41.04038239
24021.99951  41.44168091
24020.0  41.9813652
24018.00049  42.40331268
24016.00098  42.92936325
24013.99902  43.32878494
24011.99951  43.88402557
24010.0  44.35569
24008.00049  44.82549286
24006.00098  45.3483429
24003.99902  45.80318832
24001.99951  46.32484055
24000.0  46.70721817
23998.00049  47.32279968
23996.00098  47.72246933
23993.99902  48.29664612
23991.99951  48.71218491
23990.0  49.29469681
23988.00049  49.76341629
23986.00098  50.31159592
23983.99902  50.76709366
23981.99951  51.23755264
23980.0  51.73912048
23978.00049  52.2474823
23976.00098  52.81168747
23973.99902  53.21076584
23971.99951  53.80646515
23970.0  54.22977066
23968.00049  54.8235817
23966.00098  55.20863342
23963.99902  55.77946472
23961.99951  56.2110672
23960.0  56.76811981
23958.00049  57.22098923
23956.00098  57.75855255
23953.99902  58.2501297
23951.99951  58.71714401
23950.0  59.21713257
23948.00049  59.65417099
23946.00098  60.21692657
23943.99902  60.60795212
23941.99951  61.14559174
23940.0  61.54720688
23938.00049  62.10734177
23936.00098  62.56896973
23933.99902  63.07489395
23931.99951  63.46520615
23930.0  63.96043777
23928.00049  64.38964081
23926.00098  64.87581635
23923.99902  65.33965302
23921.99951  65.77310181
23920.0  66.25917053
23918.00049  66.65127563
23916.00098  67.15468597
23913.99902  67.52377319
23911.99951  68.00395203
23910.0  68.35348511
23908.00049  68.84002686
23906.00098  69.20425415
23903.99902  69.67431641
23901.99951  70.04823303
23900.0  70.46619415
23898.00049  70.84949493
23896.00098  71.19988251
23893.99902  71.61512756
23891.99951  71.94793701
23890.0  72.37049103
23888.00049  72.70317841
23886.00098  73.14434052
23883.99902  73.44677734
23881.99951  73.86495972
23880.0  74.16036987
23878.00049  74.5294342
23876.00098  74.83487701
23873.99902  75.17502594
23871.99951  75.47476196
23870.0  75.8170166
23868.00049  76.16291809
23866.00098  76.41197205
23863.99902  76.76400757
23861.99951  77.03340149
23860.0  77.35112762
23858.00049  77.58820343
23856.00098  77.9193573
23853.99902  78.15878296
23851.99951  78.47682953
23850.0  78.69065857
23848.00049  78.96882629
23846.00098  79.20497894
23843.99902  79.44680023
23841.99951  79.69713593
23840.0  79.92116547
23838.00049  80.15971375
23836.00098  80.34321594
23833.99902  80.60673523
23831.99951  80.7894516
23830.0  81.02785492
23828.00049  81.18585205
23826.00098  81.42578888
23823.99902  81.55807495
23821.99951  81.79519653
23820.0  81.94626617
23818.00049  82.13483429
23816.00098  82.31319427
23813.99902  82.45529175
23811.99951  82.64801788
23810.0  82.74737549
23808.00049  82.93347168
23806.00098  83.05392456
23803.99902  83.20993805
23801.99951  83.3062439
23800.0  83.46295929
23798.00049  83.58566284
23796.00098  83.73407745
23793.99902  83.7955246
23791.99951  83.9256897
23790.0  84.01823425
23788.00049  84.12741089
23786.00098  84.23106384
23783.99902  84.29520416
23781.99951  84.39381409
23780.0  84.47360229
23778.00049  84.57315826
23776.00098  84.632164
23773.99902  84.73213959
23771.99951  84.78887939
23770.0  84.85809326
23768.00049  84.91812134
23766.00098  84.97536469
23763.99902  85.02204132
23761.99951  85.07756042
23760.0  85.14115906
23758.00049  85.16181946
23756.00098  85.21878815
23753.99902  85.2381134
23751.99951  85.29150391
23750.0  85.29651642
23748.00049  85.36696625
23746.00098  85.36763763
23743.99902  85.38439941
23741.99951  85.42184448
23740.0  85.4630661
23738.00049  85.45375824
23736.00098  85.48100281
23733.99902  85.4858017
23731.99951  85.47705841
23730.0  85.49436188
23728.00049  85.51683044
23726.00098  85.51971436
23723.99902  85.49693298
23721.99951  85.51405334
23720.0  85.50067902
23718.00049  85.48832703
23716.00098  85.50423431
23713.99902  85.46478271
23711.99951  85.4621048
23710.0  85.46215057
23708.00049  85.41724396
23706.00098  85.42285919
23703.99902  85.42842865
23701.99951  85.3900528
23700.0  85.36833191
23698.00049  85.36074829
23696.00098  85.31095123
23693.99902  85.30240631
23691.99951  85.28630066
23690.0  85.26251221
23688.00049  85.22795105
23686.00098  85.19927979
23683.99902  85.1758728
23681.99951  85.12607574
23680.0  85.12245178
23678.00049  85.09713745
23676.00098  85.06885529
23673.99902  85.02738953
23671.99951  85.00590515
23670.0  84.96530914
23668.00049  84.94926453
23666.00098  84.90444183
23663.99902  84.85932159
23661.99951  84.81838989
23660.0  84.80108643
23658.00049  84.74651337
23656.00098  84.72579193
23653.99902  84.68048859
23651.99951  84.63694
23650.0  84.62274933
23648.00049  84.57939911
23646.00098  84.56010437
23643.99902  84.4948349
23641.99951  84.44929504
23640.0  84.43903351
23638.00049  84.39952087
23636.00098  84.35081482
23633.99902  84.31080627
23631.99951  84.27448273
23630.0  84.24407196
23628.00049  84.19377136
23626.00098  84.15254974
23623.99902  84.1349411
23621.99951  84.09989166
23620.0  84.05949402
23618.00049  84.01717377
23616.00098  83.98969269
23613.99902  83.94124603
23611.99951  83.90463257
23610.0  83.86354065
23608.00049  83.82919312
23606.00098  83.81202698
23603.99902  83.76493835
23601.99951  83.7183609
23600.0  83.68945313
23598.00049  83.65750122
23596.00098  83.63755035
23593.99902  83.60945892
23591.99951  83.56550598
23590.0  83.54094696
23588.00049  83.49332428
23586.00098  83.45580292
23583.99902  83.43935394
23581.99951  83.41220093
23580.0  83.38277435
23578.00049  83.34697723
23576.00098  83.31745148
23573.99902  83.27935028
23571.99951  83.24042511
23570.0  83.23110962
23568.00049  83.20596313
23566.00098  83.17850494
23563.99902  83.16692352
23561.99951  83.10764313
23560.0  83.08222198
23558.00049  83.08218384
23556.00098  83.03668976
23553.99902  83.00498962
23551.99951  82.98597717
23550.0  82.9510498
23548.00049  82.93897247
23546.00098  82.91809082
23543.99902  82.90904236
23541.99951  82.88687134
23540.0  82.87567139
23538.00049  82.84140015
23536.00098  82.83100128
23533.99902  82.80899811
23531.99951  82.78087616
23530.0  82.76422882
23528.00049  82.74433899
23526.00098  82.73847198
23523.99902  82.72303772
23521.99951  82.70742035
23520.0  82.7040863
23518.00049  82.66234589
23516.00098  82.65720367
23513.99902  82.64886475
23511.99951  82.64757538
23510.0  82.64244843
23508.00049  82.62165833
23506.00098  82.6027832
23503.99902  82.59571838
23501.99951  82.57411957
23500.0  82.56525421
23498.00049  82.56298065
23496.00098  82.54722595
23493.99902  82.54548645
23491.99951  82.54402161
23490.0  82.53791809
23488.00049  82.53125763
23486.00098  82.52572632
23483.99902  82.52300262
23481.99951  82.52946472
23480.0  82.50788116
23478.00049  82.4886322
23476.00098  82.49521637
23473.99902  82.49933624
23471.99951  82.49862671
23470.0  82.50695801
23468.00049  82.49466705
23466.00098  82.49036407
23463.99902  82.50411224
23461.99951  82.50471497
23460.0  82.50596619
23458.00049  82.51532745
23456.00098  82.51834869
23453.99902  82.5328064
23451.99951  82.51134491
23450.0  82.51804352
23448.00049  82.52680206
23446.00098  82.51928711
23443.99902  82.52899933
23441.99951  82.54624939
23440.0  82.54436493
23438.00049  82.56587219
23436.00098  82.53775024
23433.99902  82.56266022
23431.99951  82.57984161
23430.0  82.57912445
23428.00049  82.60889435
23426.00098  82.60028076
23423.99902  82.60438538
23421.99951  82.61978912
23420.0  82.6309967
23418.00049  82.62825775
23416.00098  82.6517868
23413.99902  82.65772247
23411.99951  82.66920471
23410.0  82.69026184
23408.00049  82.69106293
23406.00098  82.70337677
23403.99902  82.72436523
23401.99951  82.73184967
23400.0  82.75006866
23398.00049  82.76760101
23396.00098  82.78598022
23393.99902  82.811203
23391.99951  82.82062531
23390.0  82.83248901
23388.00049  82.85856628
23386.00098  82.87029266
23383.99902  82.89602661
23381.99951  82.89818573
23380.0  82.92569733
23378.00049  82.93424988
23376.00098  82.9571991
23373.99902  82.97319794
23371.99951  83.01003265
23370.0  83.02801514
23368.00049  83.05039215
23366.00098  83.06271362
23363.99902  83.08716583
23361.99951  83.10660553
23360.0  83.12181091
23358.00049  83.12860107
23356.00098  83.15692902
23353.99902  83.18898773
23351.99951  83.20909119
23350.0  83.24093628
23348.00049  83.24391174
23346.00098  83.27127838
23343.99902  83.28766632
23341.99951  83.30191803
23340.0  83.32157135
23338.00049  83.36991119
23336.00098  83.39328003
23333.99902  83.39923859
23331.99951  83.43299866
23330.0  83.45455933
23328.00049  83.47408295
23326.00098  83.50101471
23323.99902  83.52552795
23321.99951  83.53131866
23320.0  83.55657196
23318.00049  83.58953094
23316.00098  83.61000061
23313.99902  83.62943268
23311.99951  83.65382385
23310.0  83.69065857
23308.00049  83.71076965
23306.00098  83.74030304
23303.99902  83.76467133
23301.99951  83.79747009
23300.0  83.81655884
23298.00049  83.83565521
23296.00098  83.85881805
23293.99902  83.90814972
23291.99951  83.91773987
23290.0  83.96122742
23288.00049  83.97038269
23286.00098  84.00661469
23283.99902  84.02153015
23281.99951  84.07023621
23280.0  84.08959198
23278.00049  84.13169098
23276.00098  84.12978363
23273.99902  84.15701294
23271.99951  84.20192719
23270.0  84.19963837
23268.00049  84.2303772
23266.00098  84.26210785
23263.99902  84.28471375
23261.99951  84.32408905
23260.0  84.32001495
23258.00049  84.37003326
23256.00098  84.39614868
23253.99902  84.41536713
23251.99951  84.45779419
23250.0  84.45701599
23248.00049  84.50662994
23246.00098  84.52983856
23243.99902  84.52784729
23241.99951  84.58569336
23240.0  84.59983826
23238.00049  84.6210022
23236.00098  84.64888
23233.99902  84.66247559
23231.99951  84.68929291
23230.0  84.71790314
23228.00049  84.75540924
23226.00098  84.76682281
23223.99902  84.80073547
23221.99951  84.82315826
23220.0  84.84394836
23218.00049  84.86206055
23216.00098  84.90324402
23213.99902  84.94235992
23211.99951  84.96137238
23210.0  84.9666214
23208.00049  85.00357056
23206.00098  85.01786804
23203.99902  85.02685547
23201.99951  85.05104828
23200.0  85.07852936
23198.00049  85.0936203
23196.00098  85.12666321
23193.99902  85.16447449
23191.99951  85.18060303
23190.0  85.18714142
23188.00049  85.21378326
23186.00098  85.24501801
23183.99902  85.27238464
23181.99951  85.29613495
23180.0  85.31912994
23178.00049  85.34767914
23176.00098  85.3414917
23173.99902  85.37892914
23171.99951  85.3963623
23170.0  85.42749786
23168.00049  85.44172668
23166.00098  85.45365143
23163.99902  85.48226929
23161.99951  85.49536896
23160.0  85.52409363
23158.00049  85.53977966
23156.00098  85.53826904
23153.99902  85.57971191
23151.99951  85.59421539
23150.0  85.59234619
23148.00049  85.63312531
23146.00098  85.65131378
23143.99902  85.67411804
23141.99951  85.67254639
23140.0  85.69538879
23138.00049  85.7062149
23136.00098  85.72629547
23133.99902  85.73369598
23131.99951  85.74832916
23130.0  85.78035736
23128.00049  85.8039856
23126.00098  85.80299377
23123.99902  85.82460022
23121.99951  85.84247589
23120.0  85.85323334
23118.00049  85.845047
23116.00098  85.8614502
23113.99902  85.88510132
23111.99951  85.89977264
23110.0  85.91117096
23108.00049  85.90904999
23106.00098  85.94407654
23103.99902  85.96620178
23101.99951  85.96479034
23100.0  85.97784424
23098.00049  85.97925568
23096.00098  86.0022583
23093.99902  86.02440643
23091.99951  86.03794098
23090.0  86.04782104
23088.00049  86.03459167
23086.00098  86.06137848
23083.99902  86.06626129
23081.99951  86.08358765
23080.0  86.07639313
23078.00049  86.09966278
23076.00098  86.10106659
23073.99902  86.11450958
23071.99951  86.12064362
23070.0  86.12369537
23068.00049  86.13900757
23066.00098  86.14399719
23063.99902  86.15519714
23061.99951  86.14369202
23060.0  86.17473602
23058.00049  86.17669678
23056.00098  86.18809509
23053.99902  86.17498016
23051.99951  86.1905365
23050.0  86.19815826
23048.00049  86.2101059
23046.00098  86.20018768
23043.99902  86.21431732
23041.99951  86.22658539
23040.0  86.22930145
23038.00049  86.22854614
23036.00098  86.22514343
23033.99902  86.2413559
23031.99951  86.234375
23030.0  86.23233032
23028.00049  86.25431824
23026.00098  86.24755096
23023.99902  86.22865295
23021.99951  86.24620819
23020.0  86.22689819
23018.00049  86.24102783
23016.00098  86.25508881
23013.99902  86.23881531
23011.99951  86.23480988
23010.0  86.24182129
23008.00049  86.24430084
23006.00098  86.24838257
23003.99902  86.25522614
23001.99951  86.23780823
23000.0  86.24885559
22998.00049  86.2407074
22996.00098  86.2474823
22993.99902  86.23039246
22991.99951  86.24745178
22990.0  86.2304306
22988.00049  86.22460175
22986.00098  86.22904205
22983.99902  86.2256546
22981.99951  86.22353363
22980.0  86.21013641
22978.00049  86.24180603
22976.00098  86.21463013
22973.99902  86.21269989
22971.99951  86.20566559
22970.0  86.19200897
22968.00049  86.18961334
22966.00098  86.18609619
22963.99902  86.17868805
22961.99951  86.18092346
22960.0  86.16564178
22958.00049  86.16946411
22956.00098  86.15821838
22953.99902  86.13696289
22951.99951  86.16113281
22950.0  86.12762451
22948.00049  86.13794708
22946.00098  86.1339035
22943.99902  86.11351776
22941.99951  86.09538269
22940.0  86.11581421
22938.00049  86.10311127
22936.00098  86.07138824
22933.99902  86.08877563
22931.99951  86.06806946
22930.0  86.07353973
22928.00049  86.03887939
22926.00098  86.02597046
22923.99902  86.01717377
22921.99951  86.0198822
22920.0  85.99420929
22918.00049  85.98782349
22916.00098  85.974617
22913.99902  85.97386169
22911.99951  85.95449066
22910.0  85.94625092
22908.00049  85.94123077
22906.00098  85.92053986
22903.99902  85.9203186
22901.99951  85.90071106
22900.0  85.90957642
22898.00049  85.88851929
22896.00098  85.89047241
22893.99902  85.85844421
22891.99951  85.86408997
22890.0  85.84532928
22888.00049  85.80431366
22886.00098  85.81356812
22883.99902  85.79499054
22881.99951  85.78042603
22880.0  85.78132629
22878.00049  85.76541901
22876.00098  85.74676514
22873.99902  85.73413086
22871.99951  85.71557617
22870.0  85.69744873
22868.00049  85.69145966
22866.00098  85.67472839
22863.99902  85.64611816
22861.99951  85.63566589
22860.0  85.61991882
22858.00049  85.60860443
22856.00098  85.61480713
22853.99902  85.58283234
22851.99951  85.57376862
22850.0  85.55651093
22848.00049  85.5510025
22846.00098  85.52732086
22843.99902  85.51416016
22841.99951  85.49452209
22840.0  85.51129913
22838.00049  85.47149658
22836.00098  85.44315338
22833.99902  85.44067383
22831.99951  85.4284668
22830.0  85.40059662
22828.00049  85.38568878
22826.00098  85.35945129
22823.99902  85.35525513
22821.99951  85.3380661
22820.0  85.32139587
22818.00049  85.29386139
22816.00098  85.29669189
22813.99902  85.27953339
22811.99951  85.25212097
22810.0  85.23321533
22808.00049  85.22724152
22806.00098  85.19941711
22803.99902  85.20307922
22801.99951  85.16391754
22800.0  85.15969849
22798.00049  85.12700653
22796.00098  85.12606049
22793.99902  85.08816528
22791.99951  85.10931396
22790.0  85.07874298
22788.00049  85.05556488
22786.00098  85.02651978
22783.99902  85.01008606
22781.99951  85.00027466
22780.0  84.9916153
22778.00049  84.96486664
22776.00098  84.92999268
22773.99902  84.94793701
22771.99951  84.9196701
22770.0  84.89762115
22768.00049  84.87820435
22766.00098  84.87545013
22763.99902  84.84120178
22761.99951  84.81958008
22760.0  84.81372833
22758.00049  84.78945923
22756.00098  84.78378296
22753.99902  84.76010132
22751.99951  84.76291656
22750.0  84.73058319
22748.00049  84.7027359
22746.00098  84.68244934
22743.99902  84.66693878
22741.99951  84.6591568
22740.0  84.63896179
22738.00049  84.61593628
22736.00098  84.59655762
22733.99902  84.57966614
22731.99951  84.55127716
22730.0  84.54411316
22728.00049  84.52696991
22726.00098  84.52038574
22723.99902  84.5040741
22721.99951  84.47988892
22720.0  84.45544434
22718.00049  84.44720459
22716.00098  84.41777802
22713.99902  84.4176178
22711.99951  84.39381409
22710.0  84.39953613
22708.00049  84.35408783
22706.00098  84.35321808
22703.99902  84.32854462
22701.99951  84.30445099
22700.0  84.29912567
22698.00049  84.27433014
22696.00098  84.25575256
22693.99902  84.24474335
22691.99951  84.23300934
22690.0  84.19376373
22688.00049  84.18301392
22686.00098  84.16950226
22683.99902  84.14816284
22681.99951  84.14640808
22680.0  84.13343048
22678.00049  84.11235809
22676.00098  84.08304596
22673.99902  84.08635712
22671.99951  84.06904602
22670.0  84.05182648
22668.00049  84.02199554
22666.00098  84.00791931
22663.99902  84.00012207
22661.99951  83.97732544
22660.0  83.98039246
22658.00049  83.94720459
22656.00098  83.92635345
22653.99902  83.90965271
22651.99951  83.89813232
22650.0  83.87949371
22648.00049  83.85238647
22646.00098  83.8396225
22643.99902  83.83543396
22641.99951  83.80914307
22640.0  83.79932404
22638.00049  83.78302765
22636.00098  83.77823639
22633.99902  83.76608276
22631.99951  83.74182892
22630.0  83.71750641
22628.00049  83.71697998
22626.00098  83.71776581
22623.99902  83.67771149
22621.99951  83.66246796
22620.0  83.65312958
22618.00049  83.63956451
22616.00098  83.62159729
22613.99902  83.61782074
22611.99951  83.58969879
22610.0  83.5789566
22608.00049  83.55644226
22606.00098  83.57151031
22603.99902  83.5670166
22601.99951  83.53318787
22600.0  83.51703644
22598.00049  83.50092316
22596.00098  83.50494385
22593.99902  83.4858551
22591.99951  83.48917389
22590.0  83.47480774
22588.00049  83.43880463
22586.00098  83.45220947
22583.99902  83.41652679
22581.99951  83.40707397
22580.0  83.42049408
22578.00049  83.39305878
22576.00098  83.38770294
22573.99902  83.37290192
22571.99951  83.37208557
22570.0  83.34851837
22568.00049  83.34511566
22566.00098  83.32450104
22563.99902  83.33346558
22561.99951  83.31873322
22560.0  83.29006195
22558.00049  83.30529022
22556.00098  83.27139282
22553.99902  83.26134491
22551.99951  83.25215912
22550.0  83.25049591
22548.00049  83.26489258
22546.00098  83.23622131
22543.99902  83.22423553
22541.99951  83.21956635
22540.0  83.20199585
22538.00049  83.21439362
22536.00098  83.18618774
22533.99902  83.1831131
22531.99951  83.17889404
22530.0  83.16662598
22528.00049  83.16841888
22526.00098  83.14273071
22523.99902  83.14985657
22521.99951  83.15188599
22520.0  83.13835907
22518.00049  83.12717438
22516.00098  83.11820984
22513.99902  83.11737823
22511.99951  83.10482788
22510.0  83.0975647
22508.00049  83.09893036
22506.00098  83.08062744
22503.99902  83.07421112
22501.99951  83.07032013
22500.0  83.07200623
22498.00049  83.06472015
22496.00098  83.05183411
22493.99902  83.04863739
22491.99951  83.03749084
22490.0  83.03709412
22488.00049  83.03301239
22486.00098  83.02143097
22483.99902  83.03170013
22481.99951  82.99124146
22480.0  83.01451874
22478.00049  82.99386597
22476.00098  82.99816895
22473.99902  83.00030518
22471.99951  82.9806366
22470.0  82.98373413
22468.00049  82.98386383
22466.00098  82.98197937
22463.99902  82.97816467
22461.99951  82.96343231
22460.0  82.97049713
22458.00049  82.95018768
22456.00098  82.95341492
22453.99902  82.94265747
22451.99951  82.95310974
22450.0  82.92948914
22448.00049  82.94532013
22446.00098  82.91870117
22443.99902  82.94850159
22441.99951  82.93109131
22440.0  82.9344101
22438.00049  82.92489624
22436.00098  82.93553925
22433.99902  82.92867279
22431.99951  82.91038513
22430.0  82.91710663
22428.00049  82.90866852
22426.00098  82.90866852
22423.99902  82.90760803
22421.99951  82.90756226
22420.0  82.9074173
22418.00049  82.91160583
22416.00098  82.89608765
22413.99902  82.92241669
22411.99951  82.92323303
22410.0  82.91333771
22408.00049  82.91082001
22406.00098  82.91087341
22403.99902  82.91931152
22401.99951  82.90660095
22400.0  82.91667938
22398.00049  82.91080475
22396.00098  82.90895081
22393.99902  82.90701294
22391.99951  82.92253876
22390.0  82.91184235
22388.00049  82.9154129
22386.00098  82.92902374
22383.99902  82.92470551
22381.99951  82.91496277
22380.0  82.9336319
22378.00049  82.91545868
22376.00098  82.93067932
22373.99902  82.92472076
22371.99951  82.92047119
22370.0  82.93312073
22368.00049  82.92084503
22366.00098  82.93989563
22363.99902  82.94122314
22361.99951  82.94965363
22360.0  82.94077301
22358.00049  82.94819641
22356.00098  82.94889832
22353.99902  82.95367432
22351.99951  82.94368744
22350.0  82.97718048
22348.00049  82.97235107
22346.00098  82.96708679
22343.99902  82.96311188
22341.99951  82.97290039
22340.0  82.9793396
22338.00049  82.99842834
22336.00098  82.98651886
22333.99902  83.00495911
22331.99951  83.00228882
22330.0  83.00025177
22328.00049  83.00481415
22326.00098  83.02388
22323.99902  83.01993561
22321.99951  83.03171539
22320.0  83.02985382
22318.00049  83.03661346
22316.00098  83.03948975
22313.99902  83.04763794
22311.99951  83.05581665
22310.0  83.0484848
22308.00049  83.05899811
22306.00098  83.08008575
22303.99902  83.08475494
22301.99951  83.08015442
22300.0  83.09494019
22298.00049  83.09112549
22296.00098  83.1071701
22293.99902  83.11670685
22291.99951  83.12552643
22290.0  83.12142944
22288.00049  83.13322449
22286.00098  83.14271545
22283.99902  83.14825439
22281.99951  83.14937592
22280.0  83.15357208
22278.00049  83.16738892
22276.00098  83.19844055
22273.99902  83.17498779
22271.99951  83.18880463
22270.0  83.19683075
22268.00049  83.21845245
22266.00098  83.22583771
22263.99902  83.23168945
22261.99951  83.24454498
22260.0  83.24951935
22258.00049  83.25719452
22256.00098  83.26332855
22253.99902  83.26951599
22251.99951  83.28134155
22250.0  83.30181885
22248.00049  83.30820465
22246.00098  83.29915619
22243.99902  83.32327271
22241.99951  83.34286499
22240.0  83.33092499
22238.00049  83.34944916
22236.00098  83.36657715
22233.99902  83.36711121
22231.99951  83.40261841
22230.0  83.39659119
22228.00049  83.3976593
22226.00098  83.42427063
22223.99902  83.42765808
22221.99951  83.4360199
22220.0  83.44332886
22218.00049  83.46085358
22216.00098  83.46421814
22213.99902  83.49178314
22211.99951  83.48101044
22210.0  83.49909973
22208.00049  83.50743103
22206.00098  83.50521088
22203.99902  83.53173828
22201.99951  83.54119873
22200.0  83.55097198
22198.00049  83.57751465
22196.00098  83.57942963
22193.99902  83.60011292
22191.99951  83.5891037
22190.0  83.62923431
22188.00049  83.62146759
22186.00098  83.64635468
22183.99902  83.66329193
22181.99951  83.66136169
22180.0  83.68145752
22178.00049  83.71112061
22176.00098  83.71141815
22173.99902  83.71609497
22171.99951  83.7226181
22170.0  83.74945068
22168.00049  83.75003815
22166.00098  83.76651001
22163.99902  83.78044128
22161.99951  83.78159332
22160.0  83.81391144
22158.00049  83.83302307
22156.00098  83.83842468
22153.99902  83.84659576
22151.99951  83.86904907
22150.0  83.89412689
22148.00049  83.91005707
22146.00098  83.90278625
22143.99902  83.92454529
22141.99951  83.93863678
22140.0  83.94812012
22138.00049  83.96148682
22136.00098  83.96367645
22133.99902  83.98940277
22131.99951  84.0029068
22130.0  84.00360107
22128.00049  84.03094482
22126.00098  84.04149628
22123.99902  84.05591583
22121.99951  84.06993866
22120.0  84.08574677
22118.00049  84.10005188
22116.00098  84.12197113
22113.99902  84.12272644
22111.99951  84.14498901
22110.0  84.14787292
22108.00049  84.18513489
22106.00098  84.1856842
22103.99902  84.19547272
22101.99951  84.22431183
22100.0  84.23875427
22098.00049  84.24085236
22096.00098  84.2419281
22093.99902  84.28504181
22091.99951  84.28462982
22090.0  84.3049469
22088.00049  84.30896759
22086.00098  84.33584595
22083.99902  84.35873413
22081.99951  84.37810516
22080.0  84.38944244
22078.00049  84.40471649
22076.00098  84.40895081
22073.99902  84.42295074
22071.99951  84.43158722
22070.0  84.44896698
22068.00049  84.47501373
22066.00098  84.48616791
22063.99902  84.50214386
22061.99951  84.52272034
22060.0  84.5202179
22058.00049  84.54806519
22056.00098  84.55117035
22053.99902  84.57954407
22051.99951  84.58453369
22050.0  84.60403442
22048.00049  84.61566925
22046.00098  84.63792419
22043.99902  84.66000366
22041.99951  84.65659332
22040.0  84.67707825
22038.00049  84.69882202
22036.00098  84.70492554
22033.99902  84.72409058
22031.99951  84.74043274
22030.0  84.76007843
22028.00049  84.76496887
22026.00098  84.77996063
22023.99902  84.79194641
22021.99951  84.81780243
22020.0  84.82327271
22018.00049  84.8287735
22016.00098  84.8640213
22013.99902  84.87007904
22011.99951  84.8837738
22010.0  84.88922119
22008.00049  84.91385651
22006.00098  84.92707062
22003.99902  84.94929504
22001.99951  84.96534729
22000.0  84.96644592
21998.00049  84.98556519
21996.00098  85.02133179
21993.99902  85.02429962
21991.99951  85.04008484
21990.0  85.03926086
21988.00049  85.07189178
21986.00098  85.07777405
21983.99902  85.10329437
21981.99951  85.12397003
21980.0  85.11888885
21978.00049  85.13477325
21976.00098  85.16051483
21973.99902  85.15462494
21971.99951  85.17860413
21970.0  85.1833725
21968.00049  85.20386505
21966.00098  85.23416901
21963.99902  85.2455368
21961.99951  85.2527771
21960.0  85.27616119
21958.00049  85.2844696
21956.00098  85.29481506
21953.99902  85.32553101
21951.99951  85.33587646
21950.0  85.34830475
21948.00049  85.36104584
21946.00098  85.37272644
21943.99902  85.38814545
21941.99951  85.41048431
21940.0  85.4197464
21938.00049  85.4425354
21936.00098  85.44654846
21933.99902  85.4536972
21931.99951  85.47541046
21930.0  85.49153137
21928.00049  85.48926544
21926.00098  85.51768494
21923.99902  85.51719666
21921.99951  85.55738068
21920.0  85.55387878
21918.00049  85.57419586
21916.00098  85.58846283
21913.99902  85.59519196
21911.99951  85.61275482
21910.0  85.62891388
21908.00049  85.62924194
21906.00098  85.65135956
21903.99902  85.65975189
21901.99951  85.67250061
21900.0  85.69842529
21898.00049  85.71781158
21896.00098  85.71479034
21893.99902  85.72104645
21891.99951  85.74067688
21890.0  85.76567078
21888.00049  85.76454163
21886.00098  85.78620911
21883.99902  85.78829956
21881.99951  85.79436493
21880.0  85.80834198
21878.00049  85.81607056
21876.00098  85.83190155
21873.99902  85.83764648
21871.99951  85.85325623
21870.0  85.87110901
21868.00049  85.88504791
21866.00098  85.8966217
21863.99902  85.90568542
21861.99951  85.91631317
21860.0  85.91889954
21858.00049  85.93514252
21856.00098  85.94607544
21853.99902  85.95077515
21851.99951  85.97563934
21850.0  85.9782486
21848.00049  86.00536346
21846.00098  86.0092926
21843.99902  85.99854279
21841.99951  86.01442719
21840.0  86.02981567
21838.00049  86.03876495
21836.00098  86.05413818
21833.99902  86.03452301
21831.99951  86.07691193
21830.0  86.06674957
21828.00049  86.07433319
21826.00098  86.1003418
21823.99902  86.08258057
21821.99951  86.098526
21820.0  86.1052475
21818.00049  86.12236023
21816.00098  86.12705231
21813.99902  86.1422348
21811.99951  86.13864899
21810.0  86.15215302
21808.00049  86.14962006
21806.00098  86.14501953
21803.99902  86.17250824
21801.99951  86.18618011
21800.0  86.18108368
21798.00049  86.17140198
21796.00098  86.19939423
21793.99902  86.18354797
21791.99951  86.19389343
21790.0  86.19985199
21788.00049  86.21527863
21786.00098  86.20954895
21783.99902  86.21914673
21781.99951  86.23516846
21780.0  86.23926544
21778.00049  86.23331451
21776.00098  86.22264099
21773.99902  86.23809052
21771.99951  86.24534607
21770.0  86.24802399
21768.00049  86.25650024
21766.00098  86.25432587
21763.99902  86.26465607
21761.99951  86.27183533
21760.0  86.25692749
21758.00049  86.26463318
21756.00098  86.28801727
21753.99902  86.27462769
21751.99951  86.2824707
21750.0  86.27799988
21748.00049  86.28258514
21746.00098  86.27445984
21743.99902  86.27632141
21741.99951  86.27950287
21740.0  86.27668762
21738.00049  86.28251648
21736.00098  86.28261566
21733.99902  86.2879715
21731.99951  86.29309845
21730.0  86.28794098
21728.00049  86.27420044
21726.00098  86.28037262
21723.99902  86.29323578
21721.99951  86.27793884
21720.0  86.29075623
21718.00049  86.28585815
21716.00098  86.2875061
21713.99902  86.27651978
21711.99951  86.27832031
21710.0  86.28173065
21708.00049  86.27980042
21706.00098  86.27325439
21703.99902  86.28044128
21701.99951  86.28018951
21700.0  86.27507019
21698.00049  86.28282166
21696.00098  86.26945496
21693.99902  86.28147125
21691.99951  86.26478577
21690.0  86.26750946
21688.00049  86.27148438
21686.00098  86.25644684
21683.99902  86.25106812
21681.99951  86.25263977
21680.0  86.2484436
21678.00049  86.23619843
21676.00098  86.23317719
21673.99902  86.22475433
21671.99951  86.24765015
21670.0  86.22432709
21668.00049  86.22351837
21666.00098  86.23392487
21663.99902  86.22277832
21661.99951  86.21647644
21660.0  86.21286774
21658.00049  86.20300293
21656.00098  86.19731903
21653.99902  86.20332336
21651.99951  86.19802094
21650.0  86.19641876
21648.00049  86.18678284
21646.00098  86.18131256
21643.99902  86.18212128
21641.99951  86.16094971
21640.0  86.14767456
21638.00049  86.16194916
21636.00098  86.13580322
21633.99902  86.12710571
21631.99951  86.13742828
21630.0  86.13917542
21628.00049  86.12373352
21626.00098  86.12726593
21623.99902  86.1129837
21621.99951  86.11592865
21620.0  86.10558319
21618.00049  86.10196686
21616.00098  86.09620667
21613.99902  86.08033752
21611.99951  86.07486725
21610.0  86.07029724
21608.00049  86.05525208
21606.00098  86.05225372
21603.99902  86.0544281
21601.99951  86.05643463
21600.0  86.04195404
21598.00049  86.03109741
21596.00098  86.02737427
21593.99902  86.02816772
21591.99951  86.01213837
21590.0  85.99729156
21588.00049  85.9957962
21586.00098  85.99075317
21583.99902  85.98602295
21581.99951  85.98016357
21580.0  85.95301056
21578.00049  85.95108032
21576.00098  85.94972992
21573.99902  85.94274902
21571.99951  85.92789459
21570.0  85.91596222
21568.00049  85.92105103
21566.00098  85.91510773
21563.99902  85.89904022
21561.99951  85.90119934
21560.0  85.90045929
21558.00049  85.89174652
21556.00098  85.88179016
21553.99902  85.86830139
21551.99951  85.853508
21550.0  85.84506226
21548.00049  85.84293365
21546.00098  85.82805634
21543.99902  85.82950592
21541.99951  85.82408142
21540.0  85.82435608
21538.00049  85.79974365
21536.00098  85.79534149
21533.99902  85.78497314
21531.99951  85.78450775
21530.0  85.77664948
21528.00049  85.77684021
21526.00098  85.76498413
21523.99902  85.75947571
21521.99951  85.74243164
21520.0  85.73488617
21518.00049  85.71322632
21516.00098  85.71247101
21513.99902  85.71520233
21511.99951  85.70737457
21510.0  85.68212891
21508.00049  85.70024109
21506.00098  85.6915741
21503.99902  85.66936493
21501.99951  85.66985321
21500.0  85.65463257
21498.00049  85.63193512
21496.00098  85.62786102
21493.99902  85.61430359
21491.99951  85.60973358
21490.0  85.6144104
21488.00049  85.60411072
21486.00098  85.5932312
21483.99902  85.58156586
21481.99951  85.56263733
21480.0  85.56665039
21478.00049  85.56312561
21476.00098  85.54203033
21473.99902  85.54665375
21471.99951  85.5389328
21470.0  85.52024841
21468.00049  85.50970459
21466.00098  85.5164032
21463.99902  85.49011993
21461.99951  85.51261139
21460.0  85.48745728
21458.00049  85.48158264
21456.00098  85.47892761
21453.99902  85.47406006
21451.99951  85.45276642
21450.0  85.44465637
21448.00049  85.44408417
21446.00098  85.42656708
21443.99902  85.43113708
21441.99951  85.41818237
21440.0  85.40699005
21438.00049  85.41110992
21436.00098  85.40138245
21433.99902  85.38751221
21431.99951  85.37876129
21430.0  85.36097717
21428.00049  85.36814117
21426.00098  85.34671783
21423.99902  85.35277557
21421.99951  85.3230896
21420.0  85.33470154
21418.00049  85.32830811
21416.00098  85.30230713
21413.99902  85.30231476
21411.99951  85.30249023
21410.0  85.30603027
21408.00049  85.2904892
21406.00098  85.28675079
21403.99902  85.27350616
21401.99951  85.27279663
21400.0  85.2718811
21398.00049  85.26363373
21396.00098  85.24320221
21393.99902  85.24085236
21391.99951  85.24167633
21390.0  85.24169159
21388.00049  85.24863434
21386.00098  85.22103119
21383.99902  85.21247864
21381.99951  85.20413971
21380.0  85.2029953
21378.00049  85.19637299
21376.00098  85.19420624
21373.99902  85.17585754
21371.99951  85.17655182
21370.0  85.16472626
21368.00049  85.16790009
21366.00098  85.15122986
21363.99902  85.14596558
21361.99951  85.15124512
21360.0  85.16426849
21358.00049  85.14492035
21356.00098  85.1244278
21353.99902  85.13273621
21351.99951  85.12145996
21350.0  85.11421967
21348.00049  85.09255219
21346.00098  85.10641479
21343.99902  85.10677338
21341.99951  85.09281921
21340.0  85.07026672
21338.00049  85.08869171
21336.00098  85.08294678
21333.99902  85.0843277
21331.99951  85.06996918
21330.0  85.09176636
21328.00049  85.06542206
21326.00098  85.06773376
21323.99902  85.06399536
21321.99951  85.06710052
21320.0  85.06932068
21318.00049  85.05684662
21316.00098  85.0448761
21313.99902  85.04568481
21311.99951  85.0342865
21310.0  85.03059387
21308.00049  85.03223419
21306.00098  85.03414154
21303.99902  85.02296448
21301.99951  85.01490021
21300.0  85.00945282
21298.00049  85.03291321
21296.00098  85.03003693
21293.99902  85.00293732
21291.99951  85.01176453
21290.0  85.02757263
21288.00049  85.0149231
21286.00098  85.01061249
21283.99902  85.01141357
21281.99951  85.01803589
21280.0  85.01152039
21278.00049  85.00901031
21276.00098  85.0063858
21273.99902  84.99173737
21271.99951  85.00232697
21270.0  85.00598907
21268.00049  84.98478699
21266.00098  85.00263977
21263.99902  84.99726868
21261.99951  84.99715424
21260.0  84.99817657
21258.00049  84.98429108
21256.00098  84.98124695
21253.99902  84.9938736
21251.99951  84.9803772
21250.0  84.99164581
21248.00049  84.97196198
21246.00098  84.97982788
21243.99902  84.97865295
21241.99951  84.97715759
21240.0  84.99240112
21238.00049  84.98999786
21236.00098  84.99523163
21233.99902  85.00285339
21231.99951  84.99126434
21230.0  84.99310303
21228.00049  84.97703552
21226.00098  84.98536682
21223.99902  84.98347473
21221.99951  84.98394012
21220.0  84.9989624
21218.00049  85.00724792
21216.00098  85.01309204
21213.99902  85.01084137
21211.99951  85.00127411
21210.0  85.00758362
21208.00049  85.00190735
21206.00098  85.0182724
21203.99902  84.99716187
21201.99951  85.02135468
21200.0  85.02797699
21198.00049  85.01794434
21196.00098  85.03485107
21193.99902  85.02173615
21191.99951  85.03479767
21190.0  85.05068207
21188.00049  85.04473877
21186.00098  85.04533386
21183.99902  85.05547333
21181.99951  85.05033875
21180.0  85.06297302
21178.00049  85.05744171
21176.00098  85.06781769
21173.99902  85.08078766
21171.99951  85.09230042
21170.0  85.08512878
21168.00049  85.07868958
21166.00098  85.09057617
21163.99902  85.10059357
21161.99951  85.09495544
21160.0  85.10238647
21158.00049  85.11940765
21156.00098  85.12337494
21153.99902  85.13040161
21151.99951  85.12646484
21150.0  85.13079071
21148.00049  85.13123322
21146.00098  85.14038086
21143.99902  85.14746857
21141.99951  85.15206909
21140.0  85.14457703
21138.00049  85.15536499
21136.00098  85.16990662
21133.99902  85.17699432
21131.99951  85.18582916
21130.0  85.18708801
21128.00049  85.19958496
21126.00098  85.20326233
21123.99902  85.20278168
21121.99951  85.22784424
21120.0  85.22092438
21118.00049  85.23590088
21116.00098  85.23717499
21113.99902  85.24272919
21111.99951  85.25457764
21110.0  85.2694397
21108.00049  85.27944946
21106.00098  85.28126526
21103.99902  85.27764893
21101.99951  85.3024292
21100.0  85.3012619
21098.00049  85.30451202
21096.00098  85.32197571
21093.99902  85.33418274
21091.99951  85.3221817
21090.0  85.35539246
21088.00049  85.36466217
21086.00098  85.36723328
21083.99902  85.3776474
21081.99951  85.39790344
21080.0  85.40763855
21078.00049  85.40649414
21076.00098  85.41867828
21073.99902  85.43288422
21071.99951  85.4439621
21070.0  85.43955994
21068.00049  85.46935272
21066.00098  85.46401978
21063.99902  85.47893524
21061.99951  85.48057556
21060.0  85.50361633
21058.00049  85.52402496
21056.00098  85.51226044
21053.99902  85.55072784
21051.99951  85.53757477
21050.0  85.54805756
21048.00049  85.56509399
21046.00098  85.56682587
21043.99902  85.59011841
21041.99951  85.59561157
21040.0  85.61528015
21038.00049  85.62421417
21036.00098  85.64209747
21033.99902  85.63767242
21031.99951  85.65756989
21030.0  85.66355133
21028.00049  85.69348145
21026.00098  85.67628479
21023.99902  85.69364166
21021.99951  85.70141602
21020.0  85.73096466
21018.00049  85.74520111
21016.00098  85.7773056
21013.99902  85.75597382
21011.99951  85.77159882
21010.0  85.78556824
21008.00049  85.80014038
21006.00098  85.81608582
21003.99902  85.83786774
21001.99951  85.83439636
21000.0  85.85356903
20998.00049  85.87863159
20996.00098  85.88743591
20993.99902  85.89500427
20991.99951  85.91288757
20990.0  85.91755676
20988.00049  85.9229126
20986.00098  85.96429443
20983.99902  85.97009277
20981.99951  85.98085022
20980.0  85.99005127
20978.00049  86.01709747
20976.00098  86.01157379
20973.99902  86.02307129
20971.99951  86.03896332
20970.0  86.06427002
20968.00049  86.06803131
20966.00098  86.10681915
20963.99902  86.09410858
20961.99951  86.11676025
20960.0  86.12203979
20958.00049  86.14600372
20956.00098  86.15236664
20953.99902  86.19781494
20951.99951  86.17206573
20950.0  86.20677948
20948.00049  86.21695709
20946.00098  86.2088623
20943.99902  86.22640228
20941.99951  86.27259827
20940.0  86.27733612
20938.00049  86.27754974
20936.00098  86.28817749
20933.99902  86.29824829
20931.99951  86.32501984
20930.0  86.34740448
20928.00049  86.36334229
20926.00098  86.37464142
20923.99902  86.38372803
20921.99951  86.38368988
20920.0  86.42041779
20918.00049  86.43260956
20916.00098  86.4596405
20913.99902  86.47734833
20911.99951  86.47462463
20910.0  86.4982605
20908.00049  86.50593567
20906.00098  86.52734375
20903.99902  86.54968262
20901.99951  86.56269073
20900.0  86.56190491
20898.00049  86.58621216
20896.00098  86.58204651
20893.99902  86.6237793
20891.99951  86.6244812
20890.0  86.64582062
20888.00049  86.64009857
20886.00098  86.6868515
20883.99902  86.70263672
20881.99951  86.70706177
20880.0  86.7197113
20878.00049  86.74546814
20876.00098  86.75816345
20873.99902  86.76412964
20871.99951  86.77851868
20870.0  86.79053497
20868.00049  86.81462097
20866.00098  86.81420898
20863.99902  86.82781219
20861.99951  86.84545898
20860.0  86.85456848
20858.00049  86.87615204
20856.00098  86.90039825
20853.99902  86.90418243
20851.99951  86.91661072
20850.0  86.93564606
20848.00049  86.94767761
20846.00098  86.97706604
20843.99902  86.9832077
20841.99951  86.99434662
20840.0  86.99980164
20838.00049  86.99884796
20836.00098  87.03081512
20833.99902  87.04786682
20831.99951  87.06174469
20830.0  87.07756042
20828.00049  87.10207367
20826.00098  87.10189056
20823.99902  87.12314606
20821.99951  87.12395477
20820.0  87.15153503
20818.00049  87.16799927
20816.00098  87.17837524
20813.99902  87.19103241
20811.99951  87.20986938
20810.0  87.21602631
20808.00049  87.23262787
20806.00098  87.2710495
20803.99902  87.25636292
20801.99951  87.27152252
20800.0  87.27539825
20798.00049  87.32044983
20796.00098  87.3150177
20793.99902  87.31450653
20791.99951  87.33113098
20790.0  87.36095428
20788.00049  87.36640167
20786.00098  87.36325836
20783.99902  87.3849411
20781.99951  87.39169312
20780.0  87.41048431
20778.00049  87.41751862
20776.00098  87.44230652
20773.99902  87.46461487
20771.99951  87.46227264
20770.0  87.46531677
20768.00049  87.46696472
20766.00098  87.49011993
20763.99902  87.49555206
20761.99951  87.52004242
20760.0  87.52355957
20758.00049  87.53547668
20756.00098  87.56314087
20753.99902  87.53683472
20751.99951  87.55157471
20750.0  87.5944519
20748.00049  87.60024261
20746.00098  87.60385132
20743.99902  87.60726166
20741.99951  87.63121033
20740.0  87.62496185
20738.00049  87.63239288
20736.00098  87.65207672
20733.99902  87.6452179
20731.99951  87.65325928
20730.0  87.66766357
20728.00049  87.67311859
20726.00098  87.67262268
20723.99902  87.69108582
20721.99951  87.71104431
20720.0  87.71858215
20718.00049  87.73014832
20716.00098  87.72499847
20713.99902  87.71854401
20711.99951  87.72185516
20710.0  87.73561859
20708.00049  87.75041199
20706.00098  87.75897217
20703.99902  87.77309418
20701.99951  87.76963043
20700.0  87.77055359
20698.00049  87.78631592
20696.00098  87.79844666
20693.99902  87.80903625
20691.99951  87.79086304
20690.0  87.80835724
20688.00049  87.81630707
20686.00098  87.80335999
20683.99902  87.79998779
20681.99951  87.83302307
20680.0  87.84881592
20678.00049  87.83009338
20676.00098  87.82691956
20673.99902  87.84513092
20671.99951  87.85178375
20670.0  87.8459549
20668.00049  87.84197235
20666.00098  87.82644653
20663.99902  87.84300232
20661.99951  87.84825134
20660.0  87.84235382
20658.00049  87.86508179
20656.00098  87.8530426
20653.99902  87.86270142
20651.99951  87.84350586
20650.0  87.84641266
20648.00049  87.86696625
20646.00098  87.84356689
20643.99902  87.84077454
20641.99951  87.84423828
20640.0  87.86546326
20638.00049  87.84399414
20636.00098  87.84143066
20633.99902  87.84775543
20631.99951  87.84304047
20630.0  87.84216309
20628.00049  87.83731842
20626.00098  87.83210754
20623.99902  87.83359528
20621.99951  87.83624268
20620.0  87.81647491
20618.00049  87.82951355
20616.00098  87.82472992
20613.99902  87.80715179
20611.99951  87.78717804
20610.0  87.81446838
20608.00049  87.79788971
20606.00098  87.80693817
20603.99902  87.79453278
20601.99951  87.78829956
20600.0  87.78701782
20598.00049  87.76818848
20596.00098  87.77878571
20593.99902  87.7592926
20591.99951  87.75445557
20590.0  87.74801636
20588.00049  87.72590637
20586.00098  87.73311615
20583.99902  87.72151184
20581.99951  87.69229126
20580.0  87.68074799
20578.00049  87.68395996
20576.00098  87.66893005
20573.99902  87.6570816
20571.99951  87.65938568
20570.0  87.62232208
20568.00049  87.61550903
20566.00098  87.5962677
20563.99902  87.58678436
20561.99951  87.5782547
20560.0  87.56159973
20558.00049  87.56472778
20556.00098  87.5377655
20553.99902  87.51312256
20551.99951  87.5120163
20550.0  87.47992706
20548.00049  87.47112274
20546.00098  87.45384979
20543.99902  87.43955994
20541.99951  87.42782593
20540.0  87.41053009
20538.00049  87.39252472
20536.00098  87.37551117
20533.99902  87.33916473
20531.99951  87.34738159
20530.0  87.31500244
20528.00049  87.31626892
20526.00098  87.27223206
20523.99902  87.27023315
20521.99951  87.24195862
20520.0  87.23259735
20518.00049  87.18991852
20516.00098  87.17982483
20513.99902  87.14881897
20511.99951  87.11312103
20510.0  87.11341095
20508.00049  87.08323669
20506.00098  87.06206512
20503.99902  87.02832794
20501.99951  86.99621582
20500.0  86.98170471
20498.00049  86.95666504
20496.00098  86.93675995
20493.99902  86.89620209
20491.99951  86.87612915
20490.0  86.83961487
20488.00049  86.81982422
20486.00098  86.79486847
20483.99902  86.76317596
20481.99951  86.71746063
20480.0  86.68265533
20478.00049  86.6523056
20475.99976  86.63925171
20474.00024  86.5887146
20471.99951  86.55171204
20470.0  86.51070404
20468.00049  86.48633575
20465.99976  86.45770264
20464.00024  86.42028809
20461.99951  86.37755585
20460.0  86.33686829
20458.00049  86.30471039
20455.99976  86.26525116
20454.00024  86.21273041
20451.99951  86.1907196
20450.0  86.14295959
20448.00049  86.1077652
20445.99976  86.06185913
20444.00024  86.0089035
20441.99951  85.98081207
20440.0  85.93423462
20438.00049  85.87700653
20435.99976  85.84333038
20434.00024  85.79965973
20431.99951  85.75283051
20430.0  85.70748901
20428.00049  85.64772034
20425.99976  85.60203552
20424.00024  85.5606308
20421.99951  85.51803589
20420.0  85.46167755
20418.00049  85.40415955
20415.99976  85.37046051
20414.00024  85.29064941
20411.99951  85.2162323
20410.0  85.15697479
20408.00049  85.13026428
20405.99976  85.06063843
20404.00024  85.00476837
20401.99951  84.93040466
20400.0  84.89593506
20398.00049  84.82079315
20395.99976  84.7399826
20394.00024  84.69236755
20391.99951  84.62945557
20390.0  84.56958771
20388.00049  84.48923492
20385.99976  84.41690826
20384.00024  84.3521347
20381.99951  84.28503418
20380.0  84.19445801
20378.00049  84.13845062
20375.99976  84.05874634
20374.00024  83.97962189
20371.99951  83.90464783
20370.0  83.81908417
20368.00049  83.74134064
20365.99976  83.65375519
20364.00024  83.57891083
20361.99951  83.49583435
20360.0  83.41194153
20358.00049  83.32870483
20355.99976  83.2305603
20354.00024  83.15101624
20351.99951  83.06371307
20350.0  82.96927643
20348.00049  82.8755188
20345.99976  82.76131439
20344.00024  82.67292023
20341.99951  82.55641174
20340.0  82.47490692
20338.00049  82.37519073
20335.99976  82.2651825
20334.00024  82.16369629
20331.99951  82.03769684
20330.0  81.94056702
20328.00049  81.8343277
20325.99976  81.7401886
20324.00024  81.60198212
20321.99951  81.48418427
20320.0  81.36502838
20318.00049  81.26950073
20315.99976  81.1164093
20314.00024  80.99517059
20311.99951  80.88480377
20310.0  80.73366547
20308.00049  80.62584686
20305.99976  80.46309662
20304.00024  80.35490417
20301.99951  80.20339966
20300.0  80.07387543
20298.00049  79.89048004
20295.99976  79.76771545
20294.00024  79.60830688
20291.99951  79.48348999
20290.0  79.30140686
20288.00049  79.14229584
20285.99976  79.00263977
20284.00024  78.82820892
20281.99951  78.67593384
20280.0  78.51255035
20278.00049  78.36074829
20275.99976  78.15131378
20274.00024  77.99816132
20271.99951  77.78832245
20270.0  77.65287018
20268.00049  77.42970276
20265.99976  77.27696991
20264.00024  77.06031036
20261.99951  76.88604736
20260.0  76.66362762
20258.00049  76.48330688
20255.99976  76.279953
20254.00024  76.07176208
20251.99951  75.92150879
20250.0  75.67298126
20248.00049  75.44630432
20245.99976  75.1950531
20244.00024  75.00363922
20241.99951  74.73268127
20240.0  74.57906342
20238.00049  74.30648041
20235.99976  74.11004639
20234.00024  73.84680176
20231.99951  73.6242981
20230.0  73.37993622
20228.00049  73.11467743
20225.99976  72.88876343
20224.00024  72.60276031
20221.99951  72.37088776
20220.0  72.07537079
20218.00049  71.8487854
20215.99976  71.53800964
20214.00024  71.31700134
20211.99951  71.00261688
20210.0  70.76970673
20208.00049  70.42875671
20205.99976  70.16976166
20204.00024  69.89009094
20201.99951  69.59049988
20200.0  69.2956543
20198.00049  68.9780426
20195.99976  68.71831512
20194.00024  68.37680054
20191.99951  68.12295532
20190.0  67.72724152
20188.00049  67.45451355
20185.99976  67.06977844
20184.00024  66.82012939
20181.99951  66.43756104
20180.0  66.15188599
20178.00049  65.79934692
20175.99976  65.45069122
20174.00024  65.13951111
20171.99951  64.75926971
20170.0  64.46622467
20168.00049  64.03118134
20165.99976  63.74251938
20164.00024  63.31986237
20161.99951  63.05414581
20160.0  62.61383438
20158.00049  62.28710556
20155.99976  61.84254456
20154.00024  61.53154373
20151.99951  61.11933517
20150.0  60.7625351
20148.00049  60.38274002
20145.99976  59.95625305
20144.00024  59.64157104
20141.99951  59.18721008
20140.0  58.85393524
20138.00049  58.36906433
20135.99976  58.05183792
20134.00024  57.55489349
20131.99951  57.24150467
20130.0  56.75021362
20128.00049  56.42290878
20125.99976  55.97011948
20124.00024  55.57969666
20121.99951  55.14287949
20120.0  54.68105698
20118.00049  54.30718231
20115.99976  53.84396744
20114.00024  53.51251984
20111.99951  52.97615433
20110.0  52.62847519
20108.00049  52.10913467
20105.99976  51.75494003
20104.00024  51.26411438
20101.99951  50.87323761
20100.0  50.34550858
20098.00049  49.98431778
20095.99976  49.52132416
20094.00024  49.08280182
20091.99951  48.68781281
20090.0  48.20015717
20088.00049  47.82838058
20085.99976  47.28512573
20084.00024  46.91257095
20081.99951  46.36976242
20080.0  46.0284996
20078.00049  45.48903656
20075.99976  45.13500977
20074.00024  44.62901306
20071.99951  44.22043991
20070.0  43.76997375
20068.00049  43.30696869
20065.99976  42.8984375
20064.00024  42.40504837
20061.99951  42.03208542
20060.0  41.51461029
20058.00049  41.17058945
20055.99976  40.63799667
20054.00024  40.29620743
20051.99951  39.77645493
20050.0  39.37694931
20048.00049  38.84408188
20045.99976  38.48178864
20044.00024  38.0250473
20041.99951  37.61104202
20040.0  37.21335983
20038.00049  36.73443985
20035.99976  36.36943436
20034.00024  35.86827087
20031.99951  35.5257988
20030.0  35.00082779
20028.00049  34.6744194
20025.99976  34.17666245
20024.00024  33.81605148
20021.99951  33.33777237
20020.0  32.99786758
20018.00049  32.5332222
20015.99976  32.15693665
20014.00024  31.72730446
20011.99951  31.32357979
20010.0  30.95446587
20008.00049  30.51679993
20005.99976  30.20190239
20004.00024  29.72114182
20001.99951  29.4013195
20000.0  28.95880699
19998.00049  28.94095802
19995.99976  28.34708405
19994.00024  28.07270622
19991.99951  27.64203644
19990.0  27.32970047
19988.00049  26.94910812
19985.99976  26.60156441
19984.00024  26.27330399
19981.99951  25.84976006
19980.0  25.54836845
19978.00049  25.13927269
19975.99976  24.85565186
19974.00024  24.44599724
19971.99951  24.17778587
19970.0  23.76451302
19968.00049  23.49648666
19965.99976  23.09919357
19964.00024  22.80514336
19961.99951  22.44153595
19960.0  22.13936996
19958.00049  21.83150291
19955.99976  21.49812698
19954.00024  21.19190407
19951.99951  20.83272934
19950.0  20.5888176
19948.00049  20.21432304
19945.99976  19.97271538
19944.00024  19.60889816
19941.99951  19.37771225
19940.0  19.03965569
19938.00049  18.79618645
19935.99976  18.49010468
19934.00024  18.23326492
19931.99951  17.93848038
19930.0  17.64979362
19928.00049  17.39925575
19925.99976  17.10953903
19924.00024  16.88612175
19921.99951  16.56496811
19920.0  16.37083817
19918.00049  16.06331825
19915.99976  15.86316872
19914.00024  15.55476379
19911.99951  15.35131073
19910.0  15.05041981
19908.00049  14.84908295
19905.99976  14.60465527
19904.00024  14.38064003
19901.99951  14.1791029
19900.0  13.91621399
19898.00049  13.72790146
19895.99976  13.46013832
19894.00024  13.27569962
19891.99951  13.02423954
19890.0  12.85635567
19888.00049  12.62179279
19885.99976  12.44903088
19884.00024  12.20641613
19881.99951  12.03503323
19880.0  11.83063221
19878.00049  11.6329174
19875.99976  11.44902897
19874.00024  11.27085209
19871.99951  11.09706211
19870.0  10.87896919
19868.00049  10.74065304
19865.99976  10.51847553
19864.00024  10.38049793
19861.99951  10.18866348
19860.0  10.03164864
19858.00049  9.842121124
19855.99976  9.697606087
19854.00024  9.539515495
19851.99951  9.388585091
19850.0  9.236868858
19848.00049  9.08567524
19845.99976  8.937784195
19844.00024  8.786821365
19841.99951  8.641430855
19840.0  8.491383553
19838.00049  8.370619774
19835.99976  8.21476078
19834.00024  8.11108017
19831.99951  7.954767227
19830.0  7.830227852
19828.00049  7.676337719
19825.99976  7.562571526
19824.00024  7.430963039
19821.99951  7.314602852
19820.0  7.209049702
19818.00049  7.071309566
19815.99976  6.966380596
19814.00024  6.82627058
19811.99951  6.731621742
19810.0  6.607340813
19808.00049  6.51191473
19805.99976  6.387731552
19804.00024  6.30203867
19801.99951  6.173166752
19800.0  6.078976631
19798.00049  5.982830048
19795.99976  5.875598431
19794.00024  5.790071487
19791.99951  5.686234951
19790.0  5.585191727
19788.00049  5.492415905
19785.99976  5.414745331
19784.00024  5.307172775
19781.99951  5.237631321
19780.0  5.13820219
19778.00049  5.066987991
19775.99976  4.961265087
19774.00024  4.878400803
19771.99951  4.802940845
19770.0  4.72482872
19768.00049  4.659393787
19765.99976  4.569800377
19764.00024  4.504453182
19761.99951  4.427781105
19760.0  4.359988213
19758.00049  4.264194489
19755.99976  4.211729527
19754.00024  4.130030632
19751.99951  4.073074341
19750.0  3.989818573
19748.00049  3.93723464
19745.99976  3.884974957
19744.00024  3.81094265
19741.99951  3.743187428
19740.0  3.674674034
19738.00049  3.630294561
19735.99976  3.557437658
19734.00024  3.514001608
19731.99951  3.447499037
19730.0  3.402435064
19728.00049  3.33343339
19725.99976  3.280724525
19724.00024  3.223631144
19721.99951  3.180063248
19720.0  3.126408577
19718.00049  3.063391447
19715.99976  3.038463116
19714.00024  2.968938112
19711.99951  2.923030138
19710.0  2.877898216
19708.00049  2.827078104
19705.99976  2.776647329
19704.00024  2.740628242
19701.99951  2.692913532
19700.0  2.648829699
19698.00049  2.606811523
19695.99976  2.566769838
19694.00024  2.517131329
19691.99951  2.48541975
19690.0  2.443548918
19688.00049  2.401964188
19685.99976  2.364140511
19684.00024  2.323406458
19681.99951  2.286533117
19680.0  2.261038303
19678.00049  2.230678797
19675.99976  2.169619799
19674.00024  2.16056633
19671.99951  2.116765261
19670.0  2.077073097
19668.00049  2.041855335
19665.99976  2.021080732
19664.00024  1.985133648
19661.99951  1.947784066
19660.0  1.911831141
19658.00049  1.884375334
19655.99976  1.85929513
19654.00024  1.835065365
19651.99951  1.791803122
19650.0  1.766686201
19648.00049  1.7406708
19645.99976  1.721691847
19644.00024  1.693232298
19641.99951  1.664056778
19640.0  1.640177846
19638.00049  1.607864738
19635.99976  1.586110115
19634.00024  1.557632446
19631.99951  1.535834312
19630.0  1.505601406
19628.00049  1.500710249
19625.99976  1.463306904
19624.00024  1.438472748
19621.99951  1.435516477
19620.0  1.395376921
19618.00049  1.376041174
19615.99976  1.3494941
19614.00024  1.335554123
19611.99951  1.317086935
19610.0  1.302583933
19608.00049  1.274491429
19605.99976  1.253559232
19604.00024  1.240944266
19601.99951  1.209598899
19600.0  1.198141456
19598.00049  1.180028558
19595.99976  1.167041302
19594.00024  1.147485137
19591.99951  1.129897475
19590.0  1.108063579
19588.00049  1.097266078
19585.99976  1.070622921
19584.00024  1.061847329
19581.99951  1.041512251
19580.0  1.024558067
19578.00049  1.005391955
19575.99976  1.005789995
19574.00024  0.985933483
19571.99951  0.953390002
19570.0  0.943956256
19568.00049  0.939620197
19565.99976  0.937100887
19564.00024  0.907307386
19561.99951  0.889465511
19560.0  0.886775017
19558.00049  0.873068929
19555.99976  0.852744818
19554.00024  0.835902214
19551.99951  0.840328932
19550.0  0.829349458
19548.00049  0.801839113
19545.99976  0.794196129
19544.00024  0.782757342
19541.99951  0.769144416
19540.0  0.768875361
19538.00049  0.747384191
19535.99976  0.740828991
19534.00024  0.72120887
19531.99951  0.722014785
19530.0  0.704529166
19528.00049  0.705825687
19525.99976  0.691074789
19524.00024  0.669969916
19521.99951  0.659958124
19520.0  0.655929148
19518.00049  0.642690003
19515.99976  0.638249815
19514.00024  0.633960545
19511.99951  0.616280735
19510.0  0.609372258
19508.00049  0.607757449
19505.99976  0.595657408
19504.00024  0.58469969
19501.99951  0.583613634
19500.0  0.573220074
19498.00049  0.566168129
19495.99976  0.548774421
19494.00024  0.552856624
19491.99951  0.536744237
19490.0  0.533379555
19488.00049  0.524277866
19485.99976  0.519889891
19484.00024  0.511678934
19481.99951  0.49551329
19480.0  0.496857852
19478.00049  0.487204403
19475.99976  0.48386696
19474.00024  0.483095914
19471.99951  0.473751605
19470.0  0.470352858
19468.00049  0.455504715
19465.99976  0.437628895
19464.00024  0.450557619
19461.99951  0.440118611
19460.0  0.425819248
19458.00049  0.426245749
19455.99976  0.416702509
19454.00024  0.410927415
19451.99951  0.400253207
19450.0  0.420322537
19448.00049  0.399748504
19445.99976  0.393667311
19444.00024  0.376984358
19441.99951  0.369648993
19440.0  0.372480601
19438.00049  0.380186468
19435.99976  0.368920237
19434.00024  0.375498503
19431.99951  0.328306526
19430.0  0.341353774
19428.00049  0.350711644
19425.99976  0.344098508
19424.00024  0.356911928
19421.99951  0.327089906
19420.0  0.321424842
19418.00049  0.32316345
19415.99976  0.314819455
19414.00024  0.312390447
19411.99951  0.318415552
19410.0  0.310023993
19408.00049  0.315079033
19405.99976  0.292028934
19404.00024  0.295165002
19401.99951  0.284341037
19400.0  0.28584823
19398.00049  0.306217104
19395.99976  0.272326052
19394.00024  0.277027398
19391.99951  0.277890295
19390.0  0.269111931
19388.00049  0.271728873
19385.99976  0.263615966
19384.00024  0.264416367
19381.99951  0.26626727
19380.0  0.248092413
19378.00049  0.242084518
19375.99976  0.246018142
19374.00024  0.241504729
19371.99951  0.231524482
19370.0  0.243289188
19368.00049  0.240294308
19365.99976  0.232023284
19364.00024  0.231805161
19361.99951  0.214720637
19360.0  0.210157707
19358.00049  0.234301478
19355.99976  0.227308527
19354.00024  0.213549003
19351.99951  0.218390495
19350.0  0.208542153
19348.00049  0.191702843
19345.99976  0.199657351
19344.00024  0.19325836
19341.99951  0.202133209
19340.0  0.194529727
19338.00049  0.192847475
19335.99976  0.189736933
19334.00024  0.179282323
19331.99951  0.196510598
19330.0  0.191809908
19328.00049  0.178162307
19325.99976  0.181801036
19324.00024  0.180534899
19321.99951  0.173955441
19320.0  0.181893826
19318.00049  0.167886078
19315.99976  0.167892695
19314.00024  0.166213006
19311.99951  0.170247331
19310.0  0.162902594
19308.00049  0.163032606
19305.99976  0.158093736
19304.00024  0.158039928
19301.99951  0.14687404
19300.0  0.154790536
19298.00049  0.164722651
19295.99976  0.15198347
19294.00024  0.136468202
19291.99951  0.153839558
19290.0  0.140775293
19288.00049  0.139338702
19285.99976  0.14446272
19284.00024  0.142511606
19281.99951  0.147032067
19280.0  0.136559159
19278.00049  0.136625588
19275.99976  0.141625822
19274.00024  0.126090482
19271.99951  0.137916446
19270.0  0.13035959
19268.00049  0.1355519
19265.99976  0.133959442
19264.00024  0.124201529
19261.99951  0.118606046
19260.0  0.114358522
19258.00049  0.131137088
19255.99976  0.122639537
19254.00024  0.118604794
19251.99951  0.107975841
19250.0  0.125134051
19248.00049  0.11985302
19245.99976  0.1129293
19244.00024  0.121850953
19241.99951  0.104380257
19240.0  0.113392554
19238.00049  0.113730259
19235.99976  0.108355053
19234.00024  0.1127318
19231.99951  0.110844165
19230.0  0.108528778
19228.00049  0.114304587
19225.99976  0.093027703
19224.00024  0.095591627
19221.99951  0.096625499
19220.0  0.103949159
19218.00049  0.100200065
19215.99976  0.098989099
19214.00024  0.098132759
19211.99951  0.098956041
19210.0  0.099487774
19208.00049  0.081981182
19205.99976  0.102719352
19204.00024  0.095400952
19201.99951  0.097485647
19200.0  0.085175775
19198.00049  0.095770821
19195.99976  0.079633817
19194.00024  0.086679257
19191.99951  0.080815703
19190.0  0.076347478
19188.00049  0.09068308
19185.99976  0.081161737
19184.00024  0.079099536
19181.99951  0.084497266
19180.0  0.082295559
19178.00049  0.070287488
19175.99976  0.081073135
19174.00024  0.085585505
19171.99951  0.079407431
19170.0  0.072297916
19168.00049  0.073859155
19165.99976  0.067896001
19164.00024  0.081154101
19161.99951  0.0790589
19160.0  0.074222192
19158.00049  0.074975908
19155.99976  0.072175756
19154.00024  0.07486321
19151.99951  0.071426451
19150.0  0.076449946
19148.00049  0.071242936
19145.99976  0.071429476
19144.00024  0.073516525
19141.99951  0.062681913
19140.0  0.064635172
19138.00049  0.075869381
19135.99976  0.06150597
19134.00024  0.063808411
19131.99951  0.073865421
19130.0  0.0536163
19128.00049  0.058139373
19125.99976  0.066644341
19124.00024  0.058303513
19121.99951  0.060556136
19120.0  0.050618965
19118.00049  0.06659399
19115.99976  0.064151913
19114.00024  0.059247091
19111.99951  0.051537801
19110.0  0.058371842
19108.00049  0.052576173
19105.99976  0.052415334
19104.00024  0.060358476
19101.99951  0.069887348
19100.0  0.029988084
19098.00049  0.056753263
19095.99976  0.061038334
19094.00024  0.054514367
19091.99951  0.054662209
19090.0  0.053897612
19088.00049  0.047618806
19085.99976  0.049613282
19084.00024  0.045938239
19081.99951  0.052293941
19080.0  0.039179575
19078.00049  0.06036412
19075.99976  0.046053108
19074.00024  0.047878046
19071.99951  0.045898501
19070.0  0.048226997
19068.00049  0.044481117
19065.99976  0.051274914
19064.00024  0.048825819
19061.99951  0.048086505
19060.0  0.047541976
19058.00049  0.049240392
19055.99976  0.047668718
19054.00024  0.048106387
19051.99951  0.045269508
19050.0  0.043046787
19048.00049  0.049363188
19045.99976  0.040799413
19044.00024  0.048185147
19041.99951  0.038811844
19040.0  0.040814351
19038.00049  0.046079028
19035.99976  0.045217842
19034.00024  0.04423178
19031.99951  0.03619238
19030.0  0.044606034
19028.00049  0.041550159
19025.99976  0.039812174
19024.00024  0.039922152
19021.99951  0.03665043
19020.0  0.032287363
19018.00049  0.035119575
19015.99976  0.0528479
19014.00024  0.0423625
19011.99951  0.036434084
19010.0  0.030640982
19008.00049  0.044768505
19005.99976  0.056876451
19004.00024  0.030976746
19001.99951  0.040904131
19000.0  0.033996154
