#  wavelength (A)   throughput  
    7646.383  0.
    7660.383    0.0000e+00
    7674.383    0.0000e+00
    7688.383    0.0000e+00
    7702.383    0.0000e+00
    7716.383    0.0000e+00
    7730.383    0.0000e+00
    7744.383    0.0000e+00
    7758.383    0.0000e+00
    7772.383    0.0000e+00
    7786.383    0.0000e+00
    7800.383    0.0000e+00
    7814.383    0.0000e+00
    7828.383    0.0000e+00
    7842.383    0.0000e+00
    7856.383    0.0000e+00
    7870.383    0.0000e+00
    7884.383    0.0000e+00
    7898.383    0.0000e+00
    7912.383    0.0000e+00
    7926.383    0.0000e+00
    7940.383    0.0000e+00
    7954.383    0.0000e+00
    7968.383    0.0000e+00
    7982.383    0.0000e+00
    7996.383    0.0000e+00
    8010.383    3.1268e-05
    8024.383    3.1362e-05
    8038.383    3.1455e-05
    8052.383    3.1547e-05
    8066.383    3.1640e-05
    8080.383    3.1733e-05
    8094.383    3.1826e-05
    8108.383    3.1919e-05
    8122.383    3.2013e-05
    8136.383    3.2107e-05
    8150.383    3.2201e-05
    8164.383    3.2295e-05
    8178.383    3.2390e-05
    8192.383    3.2563e-05
    8206.383    3.2743e-05
    8220.383    3.2919e-05
    8234.383    3.3085e-05
    8248.383    3.3229e-05
    8262.383    3.3377e-05
    8276.383    3.3526e-05
    8290.383    3.3676e-05
    8304.383    3.3827e-05
    8318.383    3.3979e-05
    8332.383    3.4132e-05
    8346.383    3.4285e-05
    8360.383    3.4434e-05
    8374.383    3.4482e-05
    8388.383    3.4530e-05
    8402.383    3.4576e-05
    8416.383    3.4615e-05
    8430.383    3.4653e-05
    8444.383    3.4692e-05
    8458.383    3.4730e-05
    8472.383    3.4766e-05
    8486.383    3.4803e-05
    8500.383    3.4841e-05
    8514.383    3.4911e-05
    8528.383    3.4982e-05
    8542.383    3.5043e-05
    8556.383    4.0706e-05
    8570.383    6.0330e-05
    8584.383    7.9971e-05
    8598.383    9.9628e-05
    8612.383    1.1578e-04
    8626.383    1.3054e-04
    8640.383    1.4553e-04
    8654.383    1.6067e-04
    8668.383    1.7587e-04
    8682.383    1.9115e-04
    8696.383    2.0649e-04
    8710.383    2.2189e-04
    8724.383    2.3786e-04
    8738.383    2.5510e-04
    8752.383    2.7262e-04
    8766.383    2.9043e-04
    8780.383    3.0852e-04
    8794.383    3.2690e-04
    8808.383    3.9221e-04
    8822.383    5.5977e-04
    8836.383    8.9756e-04
    8850.383    1.3891e-03
    8864.383    2.1541e-03
    8878.383    3.2543e-03
    8892.383    5.0697e-03
    8906.383    8.2068e-03
    8920.383    1.3389e-02
    8934.383    2.2427e-02
    8948.383    3.7745e-02
    8962.383    6.2211e-02
    8976.383    1.0076e-01
    8990.383    1.5264e-01
    9004.383    2.1474e-01
    9018.383    2.7835e-01
    9032.383    3.3239e-01
    9046.383    3.6842e-01
    9060.383    3.8875e-01
    9074.383    3.9599e-01
    9088.383    3.9721e-01
    9102.383    3.9664e-01
    9116.383    3.9598e-01
    9130.383    3.9501e-01
    9144.383    3.9417e-01
    9158.383    3.9361e-01
    9172.383    3.9390e-01
    9186.383    3.9457e-01
    9200.383    3.9568e-01
    9214.383    3.9838e-01
    9228.383    4.0130e-01
    9242.383    4.0488e-01
    9256.383    4.0686e-01
    9270.383    4.0895e-01
    9284.383    4.1037e-01
    9298.383    4.1137e-01
    9312.383    4.1232e-01
    9326.383    4.1361e-01
    9340.383    4.1469e-01
    9354.383    4.1601e-01
    9368.383    4.1769e-01
    9382.383    4.1943e-01
    9396.383    4.1977e-01
    9410.383    4.1856e-01
    9424.383    4.1609e-01
    9438.383    4.1343e-01
    9452.383    4.1141e-01
    9466.383    4.1159e-01
    9480.383    4.1296e-01
    9494.383    4.1660e-01
    9508.383    4.1937e-01
    9522.383    4.2098e-01
    9536.383    4.2061e-01
    9550.383    4.1913e-01
    9564.383    4.1697e-01
    9578.383    4.1653e-01
    9592.383    4.1644e-01
    9606.383    4.1727e-01
    9620.383    4.1779e-01
    9634.383    4.1784e-01
    9648.383    4.1731e-01
    9662.383    4.1730e-01
    9676.383    4.1790e-01
    9690.383    4.1926e-01
    9704.383    4.2104e-01
    9718.383    4.2318e-01
    9732.383    4.2428e-01
    9746.383    4.2487e-01
    9760.383    4.2563e-01
    9774.383    4.2659e-01
    9788.383    4.2928e-01
    9802.383    4.3297e-01
    9816.383    4.3696e-01
    9830.383    4.3999e-01
    9844.383    4.4245e-01
    9858.383    4.4330e-01
    9872.383    4.4354e-01
    9886.383    4.4334e-01
    9900.383    4.4268e-01
    9914.383    4.4260e-01
    9928.383    4.4158e-01
    9942.383    4.4034e-01
    9956.383    4.3794e-01
    9970.383    4.3590e-01
    9984.383    4.3461e-01
    9998.383    4.3423e-01
   10012.383    4.3523e-01
   10026.383    4.3672e-01
   10040.383    4.3729e-01
   10054.383    4.3560e-01
   10068.383    4.3245e-01
   10082.383    4.2763e-01
   10096.383    4.2372e-01
   10110.383    4.2145e-01
   10124.383    4.2102e-01
   10138.383    4.2375e-01
   10152.383    4.2755e-01
   10166.383    4.3093e-01
   10180.383    4.3232e-01
   10194.383    4.3092e-01
   10208.383    4.2720e-01
   10222.383    4.2337e-01
   10236.383    4.2186e-01
   10250.383    4.2328e-01
   10264.383    4.2925e-01
   10278.383    4.3774e-01
   10292.383    4.4676e-01
   10306.383    4.5497e-01
   10320.383    4.6080e-01
   10334.383    4.6319e-01
   10348.383    4.6360e-01
   10362.383    4.6305e-01
   10376.383    4.6281e-01
   10390.383    4.6404e-01
   10404.383    4.6548e-01
   10418.383    4.6761e-01
   10432.383    4.6803e-01
   10446.383    4.6714e-01
   10460.383    4.6418e-01
   10474.383    4.5988e-01
   10488.383    4.5533e-01
   10502.383    4.4993e-01
   10516.383    4.4453e-01
   10530.383    4.4103e-01
   10544.383    4.4051e-01
   10558.383    4.4319e-01
   10572.383    4.4750e-01
   10586.383    4.5241e-01
   10600.383    4.5678e-01
   10614.383    4.5744e-01
   10628.383    4.5314e-01
   10642.383    4.4176e-01
   10656.383    4.1625e-01
   10670.383    3.7393e-01
   10684.383    3.1620e-01
   10698.383    2.5140e-01
   10712.383    1.8880e-01
   10726.383    1.3850e-01
   10740.383    9.8589e-02
   10754.383    6.7687e-02
   10768.383    4.5392e-02
   10782.383    2.9134e-02
   10796.383    1.8671e-02
   10810.383    1.2251e-02
   10824.383    8.0564e-03
   10838.383    5.6580e-03
   10852.383    4.1512e-03
   10866.383    3.0790e-03
   10880.383    2.5293e-03
   10894.383    1.9382e-03
   10908.383    1.6204e-03
   10922.383    1.2532e-03
   10936.383    9.1749e-04
   10950.383    6.3581e-04
   10964.383    4.6493e-04
   10978.383    2.9679e-04
   10992.383    1.7529e-04
   11006.383    1.6725e-04
   11020.383    9.7947e-05
   11034.383    9.2962e-05
   11048.383    8.7973e-05
   11062.383    8.2995e-05
   11076.383    7.8046e-05
   11090.383    7.3038e-05
   11104.383    6.8026e-05
   11118.383    6.3009e-05
   11132.383    5.7987e-05
   11146.383    5.2990e-05
   11160.383    5.8038e-05
   11174.383    7.2239e-05
   11188.383    8.6452e-05
   11202.383    1.0070e-04
   11216.383    1.1503e-04
   11230.383    1.2930e-04
   11244.383    1.4359e-04
   11258.383    1.5209e-04
   11272.383    1.5111e-04
   11286.383    1.5020e-04
   11300.383    1.4918e-04
   11314.383    1.4816e-04
   11328.383    1.4714e-04
   11342.383    1.4625e-04
   11356.383    1.4523e-04
   11370.383    1.4420e-04
   11384.383    1.4323e-04
   11398.383    1.4227e-04
   11412.383    1.4126e-04
   11426.383    1.4025e-04
   11440.383    1.3923e-04
   11454.383    1.3833e-04
   11468.383    1.3731e-04
   11482.383    1.3629e-04
   11496.383    1.3534e-04
   11510.383    1.3435e-04
   11524.383    1.3332e-04
   11538.383    1.3228e-04
   11552.383    1.3135e-04
   11566.383    1.3031e-04
   11580.383    1.2927e-04
   11594.383    1.2828e-04
   11608.383    1.2730e-04
   11622.383    1.2625e-04
   11636.383    1.2527e-04
   11650.383    1.2426e-04
   11664.383    1.2322e-04
   11678.383    1.2217e-04
   11692.383    1.2122e-04
   11706.383    1.2016e-04
   11720.383    1.1911e-04
   11734.383    1.1815e-04
   11748.383    1.1709e-04
   11762.383    1.1603e-04
   11776.383    1.1503e-04
   11790.383    1.1401e-04
   11804.383    1.1294e-04
   11818.383    1.1193e-04
   11832.383    1.1085e-04
   11846.383    1.0977e-04
   11860.383    1.0877e-04
   11874.383    1.0767e-04
   11888.383    1.0658e-04
   11902.383    1.0558e-04
   11916.383    1.0555e-04
   11930.383    1.0558e-04
   11944.383    1.0566e-04
   11958.383    1.0034e-04
   11972.383    8.5571e-05
   11986.383    7.0824e-05
   12000.383    5.6038e-05
   12014.383    5.2992e-05
   12028.383    5.3059e-05
   12042.383    5.3095e-05
   12056.383    5.3123e-05
   12070.383  0.
