#  wavelength (A)   throughput  
   25584.778  0.
   25712.778    3.2700e-04
   25840.778    3.2700e-04
   25968.778    3.2700e-04
   26096.778    3.2700e-04
   26224.778    3.2700e-04
   26352.778    3.2700e-04
   26480.778    3.2700e-04
   26608.778    3.2700e-04
   26736.778    3.2700e-04
   26864.778    3.2700e-04
   26992.778    3.2700e-04
   27120.778    3.2700e-04
   27248.778    3.2700e-04
   27376.778    3.2700e-04
   27504.778    3.2700e-04
   27632.778    3.2700e-04
   27760.778    3.2700e-04
   27888.778    3.2700e-04
   28016.778    3.2700e-04
   28144.778    3.2700e-04
   28272.778    3.2700e-04
   28400.778    3.2700e-04
   28528.778    3.2700e-04
   28656.778    3.2700e-04
   28784.778    3.2700e-04
   28912.778    3.2700e-04
   29040.778    3.2700e-04
   29168.778    3.2700e-04
   29296.778    3.2700e-04
   29424.778    3.2700e-04
   29552.778    3.2700e-04
   29680.778    3.2700e-04
   29808.778    3.2700e-04
   29936.778    3.2700e-04
   30064.778    3.2700e-04
   30192.778    3.2700e-04
   30320.778    3.2700e-04
   30448.778    3.2700e-04
   30576.778    3.2700e-04
   30704.778    3.2700e-04
   30832.778    3.2700e-04
   30960.778    3.2700e-04
   31088.778    3.2700e-04
   31216.778    3.2700e-04
   31344.778    3.2700e-04
   31472.778    3.2700e-04
   31600.778    3.2700e-04
   31728.778    3.2700e-04
   31856.778    3.2700e-04
   31984.778    3.2700e-04
   32112.778    3.2700e-04
   32240.778    3.2700e-04
   32368.778    3.2700e-04
   32496.778    3.2700e-04
   32624.778    3.2700e-04
   32752.778    3.2700e-04
   32880.778    3.2700e-04
   33008.778    3.2700e-04
   33136.778    3.2700e-04
   33264.778    3.2700e-04
   33392.778    3.2700e-04
   33520.778    3.2700e-04
   33648.778    3.2700e-04
   33776.778    3.2700e-04
   33904.778    3.2700e-04
   34032.778    3.2700e-04
   34160.778    3.2700e-04
   34288.778    3.2700e-04
   34416.778    3.2700e-04
   34544.778    3.2700e-04
   34672.778    3.2700e-04
   34800.778    3.2700e-04
   34928.778    3.2700e-04
   35056.778    3.2700e-04
   35184.778    3.2700e-04
   35312.778    3.2700e-04
   35440.778    3.2700e-04
   35568.778    3.2700e-04
   35696.778    3.2700e-04
   35824.778    3.2700e-04
   35952.778    7.0567e-04
   36080.778    1.2861e-03
   36208.778    1.2770e-03
   36336.778    1.3009e-03
   36464.778    1.2347e-03
   36592.778    8.4050e-04
   36720.778    4.9898e-04
   36848.778    3.8428e-04
   36976.778    6.5003e-04
   37104.778    5.5091e-04
   37232.778    5.9925e-04
   37360.778    8.3529e-04
   37488.778    7.8321e-04
   37616.778    6.4751e-04
   37744.778    4.7346e-04
   37872.778    4.0691e-04
   38000.778    3.6926e-04
   38128.778    3.4640e-04
   38256.778    3.3157e-04
   38384.778    2.4259e-04
   38512.778    2.5862e-04
   38640.778    4.6828e-04
   38768.778    7.7848e-04
   38896.778    1.5105e-03
   39024.778    2.7604e-03
   39152.778    5.6631e-03
   39280.778    1.1054e-02
   39408.778    1.9494e-02
   39536.778    3.5022e-02
   39664.778    6.6500e-02
   39792.778    1.2340e-01
   39920.778    2.2798e-01
   40048.778    3.7181e-01
   40176.778    4.8524e-01
   40304.778    5.4450e-01
   40432.778    5.3684e-01
   40560.778    5.1954e-01
   40688.778    4.9586e-01
   40816.778    4.7506e-01
   40944.778    4.6365e-01
   41072.778    4.6096e-01
   41200.778    4.7216e-01
   41328.778    4.9654e-01
   41456.778    5.2871e-01
   41584.778    5.6863e-01
   41712.778    6.0191e-01
   41840.778    6.3063e-01
   41968.778    6.5464e-01
   42096.778    6.6682e-01
   42224.778    6.7250e-01
   42352.778    6.7202e-01
   42480.778    6.6407e-01
   42608.778    6.5332e-01
   42736.778    6.4286e-01
   42864.778    6.3833e-01
   42992.778    6.4463e-01
   43120.778    6.5523e-01
   43248.778    6.6833e-01
   43376.778    6.7992e-01
   43504.778    6.8876e-01
   43632.778    6.9453e-01
   43760.778    7.0135e-01
   43888.778    7.0932e-01
   44016.778    7.1810e-01
   44144.778    7.2662e-01
   44272.778    7.3271e-01
   44400.778    7.3641e-01
   44528.778    7.3617e-01
   44656.778    7.3413e-01
   44784.778    7.3095e-01
   44912.778    7.2650e-01
   45040.778    7.1659e-01
   45168.778    7.0639e-01
   45296.778    6.9650e-01
   45424.778    6.8934e-01
   45552.778    6.8381e-01
   45680.778    6.7939e-01
   45808.778    6.7494e-01
   45936.778    6.6870e-01
   46064.778    6.6027e-01
   46192.778    6.4790e-01
   46320.778    6.3793e-01
   46448.778    6.3287e-01
   46576.778    6.3478e-01
   46704.778    6.4191e-01
   46832.778    6.4977e-01
   46960.778    6.5788e-01
   47088.778    6.6362e-01
   47216.778    6.6452e-01
   47344.778    6.6145e-01
   47472.778    6.5381e-01
   47600.778    6.4391e-01
   47728.778    6.3295e-01
   47856.778    6.2139e-01
   47984.778    6.1291e-01
   48112.778    6.0600e-01
   48240.778    6.0059e-01
   48368.778    5.9897e-01
   48496.778    5.9777e-01
   48624.778    5.9684e-01
   48752.778    5.9595e-01
   48880.778    5.9578e-01
   49008.778    5.9576e-01
   49136.778    5.9468e-01
   49264.778    5.8600e-01
   49392.778    5.6947e-01
   49520.778    5.4132e-01
   49648.778    5.1485e-01
   49776.778    5.0157e-01
   49904.778    5.0504e-01
   50032.778    4.6711e-01
   50160.778    3.4878e-01
   50288.778    1.7455e-01
   50416.778    7.1659e-02
   50544.778    2.4058e-02
   50672.778    7.3753e-03
   50800.778    2.9553e-03
   50928.778    1.2007e-03
   51056.778    5.0584e-04
   51184.778    4.4680e-04
   51312.778    2.9913e-04
   51440.778    1.7702e-04
   51568.778    9.8082e-05
   51696.778    1.2330e-04
   51824.778    1.2266e-04
   51952.778    1.0810e-04
   52080.778    1.2563e-04
   52208.778    1.4665e-04
   52336.778    1.4864e-04
   52464.778    8.9479e-05
   52592.778    3.7654e-05
   52720.778    4.4674e-06
   52848.778    3.0570e-07
   52976.778    0.0000e+00
   53104.778    0.0000e+00
   53232.778    0.0000e+00
   53360.778    0.0000e+00
   53488.778    0.0000e+00
   53616.778    0.0000e+00
   53744.778    0.0000e+00
   53872.778    0.0000e+00
   54000.778    0.0000e+00
   54128.778    0.0000e+00
   54256.778    0.0000e+00
   54384.778    0.0000e+00
   54512.778    0.0000e+00
   54640.778    0.0000e+00
   54768.778    0.0000e+00
   54896.778    0.0000e+00
   55024.778    0.0000e+00
   55152.778    0.0000e+00
   55280.778    0.0000e+00
   55408.778    0.0000e+00
   55536.778    0.0000e+00
   55664.778    0.0000e+00
   55792.778    0.0000e+00
   55920.778    0.0000e+00
   56048.778    0.0000e+00
   56176.778    0.0000e+00
   56304.778    0.0000e+00
   56432.778    0.0000e+00
   56560.778    0.0000e+00
   56688.778    0.0000e+00
   56816.778    0.0000e+00
   56944.778    0.0000e+00
   57072.778    0.0000e+00
   57200.778    0.0000e+00
   57328.778    0.0000e+00
   57456.778    0.0000e+00
   57584.778    0.0000e+00
   57712.778    0.0000e+00
   57840.778    0.0000e+00
   57968.778    0.0000e+00
   58096.778    0.0000e+00
   58224.778    0.0000e+00
   58352.778    0.0000e+00
   58480.778    0.0000e+00
   58608.778    0.0000e+00
   58736.778    0.0000e+00
   58864.778    0.0000e+00
   58992.778    0.0000e+00
   59120.778    0.0000e+00
   59248.778    0.0000e+00
   59376.778    0.0000e+00
   59504.778    0.0000e+00
   59632.778    0.0000e+00
   59760.778    0.0000e+00
   59888.778    0.0000e+00
   60016.778    0.0000e+00
   60144.778    0.0000e+00
   60272.778    0.0000e+00
   60400.778    0.0000e+00
   60528.778    0.0000e+00
   60656.778    0.0000e+00
   60784.778    0.0000e+00
   60912.778    0.0000e+00
   61040.778    0.0000e+00
   61168.778    0.0000e+00
   61296.778    0.0000e+00
   61424.778    0.0000e+00
   61552.778    0.0000e+00
   61680.778    0.0000e+00
   61808.778    0.0000e+00
   61936.778    0.0000e+00
   62064.778    0.0000e+00
   62192.778    0.0000e+00
   62320.778    0.0000e+00
   62448.778    0.0000e+00
   62576.778    0.0000e+00
   62704.778    0.0000e+00
   62832.778    0.0000e+00
   62960.778    0.0000e+00
   63088.778    0.0000e+00
   63216.778    0.0000e+00
   63344.778    0.0000e+00
   63472.778    0.0000e+00
   63600.778    0.0000e+00
   63728.778    0.0000e+00
   63856.778    0.0000e+00
   63984.778    0.0000e+00
   64112.778    0.0000e+00
   64240.778    0.0000e+00
   64368.778  0.
