#  wavelength (A)   throughput  
   45973.918  0.
   46192.918    3.5200e-04
   46411.918    3.5200e-04
   46630.918    3.5200e-04
   46849.918    3.5200e-04
   47068.918    3.5200e-04
   47287.918    3.5200e-04
   47506.918    3.5200e-04
   47725.918    3.5200e-04
   47944.918    3.5200e-04
   48163.918    3.5200e-04
   48382.918    3.5200e-04
   48601.918    3.5200e-04
   48820.918    3.5200e-04
   49039.918    3.5200e-04
   49258.918    3.5200e-04
   49477.918    3.5200e-04
   49696.918    3.5200e-04
   49915.918    3.5200e-04
   50134.918    3.5200e-04
   50353.918    3.5200e-04
   50572.918    3.5200e-04
   50791.918    3.5200e-04
   51010.918    3.5200e-04
   51229.918    3.5200e-04
   51448.918    3.5200e-04
   51667.918    3.5200e-04
   51886.918    3.5200e-04
   52105.918    3.5200e-04
   52324.918    3.5200e-04
   52543.918    3.5200e-04
   52762.918    3.5200e-04
   52981.918    3.5200e-04
   53200.918    3.5200e-04
   53419.918    3.5200e-04
   53638.918    3.5200e-04
   53857.918    3.5200e-04
   54076.918    3.5200e-04
   54295.918    3.5200e-04
   54514.918    3.5200e-04
   54733.918    3.5200e-04
   54952.918    3.5200e-04
   55171.918    3.5200e-04
   55390.918    3.5200e-04
   55609.918    3.5200e-04
   55828.918    3.5200e-04
   56047.918    3.5200e-04
   56266.918    2.8666e-04
   56485.918    1.8927e-04
   56704.918    1.4342e-04
   56923.918    1.4737e-04
   57142.918    1.5403e-04
   57361.918    1.6580e-04
   57580.918    1.7651e-04
   57799.918    1.8253e-04
   58018.918    1.8862e-04
   58237.918    1.9817e-04
   58456.918    2.0772e-04
   58675.918    2.3068e-04
   58894.918    2.5582e-04
   59113.918    2.9975e-04
   59332.918    3.5183e-04
   59551.918    3.0846e-04
   59770.918    1.8214e-04
   59989.918    1.7702e-04
   60208.918    3.7586e-04
   60427.918    5.1767e-04
   60646.918    4.4555e-04
   60865.918    3.7497e-04
   61084.918    3.3459e-04
   61303.918    2.9421e-04
   61522.918    2.8936e-04
   61741.918    2.8908e-04
   61960.918    2.8208e-04
   62179.918    2.7250e-04
   62398.918    3.4463e-04
   62617.918    4.8058e-04
   62836.918    7.2781e-04
   63055.918    1.1425e-03
   63274.918    3.7591e-03
   63493.918    1.3467e-02
   63712.918    2.5874e-02
   63931.918    7.1741e-02
   64150.918    1.1761e-01
   64369.918    1.6929e-01
   64588.918    2.2154e-01
   64807.918    2.5059e-01
   65026.918    2.7191e-01
   65245.918    2.8935e-01
   65464.918    3.0408e-01
   65683.918    3.1379e-01
   65902.918    3.1674e-01
   66121.918    3.1840e-01
   66340.918    3.1644e-01
   66559.918    3.1399e-01
   66778.918    3.0710e-01
   66997.918    3.0022e-01
   67216.918    3.0934e-01
   67435.918    3.1950e-01
   67654.918    3.2544e-01
   67873.918    3.3017e-01
   68092.918    3.3525e-01
   68311.918    3.4055e-01
   68530.918    3.4369e-01
   68749.918    3.4420e-01
   68968.918    3.4396e-01
   69187.918    3.4191e-01
   69406.918    3.4033e-01
   69625.918    3.4193e-01
   69844.918    3.4354e-01
   70063.918    3.3771e-01
   70282.918    3.3162e-01
   70501.918    3.3150e-01
   70720.918    3.3284e-01
   70939.918    3.3368e-01
   71158.918    3.3425e-01
   71377.918    3.3504e-01
   71596.918    3.3609e-01
   71815.918    3.3658e-01
   72034.918    3.3587e-01
   72253.918    3.3647e-01
   72472.918    3.4429e-01
   72691.918    3.5210e-01
   72910.918    3.4997e-01
   73129.918    3.4776e-01
   73348.918    3.4863e-01
   73567.918    3.5014e-01
   73786.918    3.5340e-01
   74005.918    3.5754e-01
   74224.918    3.5737e-01
   74443.918    3.5297e-01
   74662.918    3.5193e-01
   74881.918    3.5734e-01
   75100.918    3.6374e-01
   75319.918    3.7460e-01
   75538.918    3.8534e-01
   75757.918    3.8946e-01
   75976.918    3.9359e-01
   76195.918    3.9111e-01
   76414.918    3.8752e-01
   76633.918    3.8813e-01
   76852.918    3.9059e-01
   77071.918    3.9265e-01
   77290.918    3.9437e-01
   77509.918    3.9455e-01
   77728.918    3.9212e-01
   77947.918    3.9053e-01
   78166.918    3.9219e-01
   78385.918    3.9402e-01
   78604.918    3.9983e-01
   78823.918    4.0563e-01
   79042.918    4.0817e-01
   79261.918    4.1027e-01
   79480.918    4.0709e-01
   79699.918    4.0186e-01
   79918.918    4.0171e-01
   80137.918    4.0557e-01
   80356.918    4.0919e-01
   80575.918    4.1242e-01
   80794.918    4.1533e-01
   81013.918    4.1721e-01
   81232.918    4.1904e-01
   81451.918    4.2034e-01
   81670.918    4.2164e-01
   81889.918    4.1869e-01
   82108.918    4.1532e-01
   82327.918    4.1804e-01
   82546.918    4.2283e-01
   82765.918    4.2453e-01
   82984.918    4.2403e-01
   83203.918    4.2424e-01
   83422.918    4.2543e-01
   83641.918    4.2520e-01
   83860.918    4.2095e-01
   84079.918    4.1717e-01
   84298.918    4.1774e-01
   84517.918    4.1831e-01
   84736.918    4.2214e-01
   84955.918    4.2620e-01
   85174.918    4.2446e-01
   85393.918    4.2102e-01
   85612.918    4.2027e-01
   85831.918    4.2125e-01
   86050.918    4.2166e-01
   86269.918    4.2136e-01
   86488.918    4.2008e-01
   86707.918    4.1638e-01
   86926.918    4.1184e-01
   87145.918    4.0141e-01
   87364.918    3.9099e-01
   87583.918    3.9089e-01
   87802.918    3.9121e-01
   88021.918    3.9653e-01
   88240.918    4.0310e-01
   88459.918    4.0365e-01
   88678.918    4.0077e-01
   88897.918    3.9776e-01
   89116.918    3.9460e-01
   89335.918    3.9173e-01
   89554.918    3.8948e-01
   89773.918    3.8730e-01
   89992.918    3.8554e-01
   90211.918    3.8378e-01
   90430.918    3.7916e-01
   90649.918    3.7449e-01
   90868.918    3.7055e-01
   91087.918    3.6676e-01
   91306.918    3.6322e-01
   91525.918    3.5980e-01
   91744.918    3.5254e-01
   91963.918    3.4145e-01
   92182.918    3.2724e-01
   92401.918    3.0697e-01
   92620.918    2.8602e-01
   92839.918    2.6198e-01
   93058.918    2.3798e-01
   93277.918    2.1717e-01
   93496.918    1.9635e-01
   93715.918    1.7246e-01
   93934.918    1.4803e-01
   94153.918    1.2404e-01
   94372.918    1.0023e-01
   94591.918    7.8479e-02
   94810.918    5.8557e-02
   95029.918    4.1119e-02
   95248.918    2.7998e-02
   95467.918    1.6588e-02
   95686.918    1.1889e-02
   95905.918    7.3098e-03
   96124.918    5.5383e-03
   96343.918    3.7668e-03
   96562.918    2.7105e-03
   96781.918    1.7531e-03
   97000.918    1.5411e-03
   97219.918    1.6243e-03
   97438.918    1.4479e-03
   97657.918    1.0626e-03
   97876.918    8.0619e-04
   98095.918    7.4974e-04
   98314.918    6.8791e-04
   98533.918    6.0799e-04
   98752.918    5.3444e-04
   98971.918    5.4903e-04
   99190.918    5.6362e-04
   99409.918    4.7870e-04
   99628.918    3.8334e-04
   99847.918    3.4371e-04
  100066.918    3.2339e-04
  100285.918    4.3541e-04
  100504.918    6.4309e-04
  100723.918    6.6446e-04
  100942.918    4.2671e-04
  101161.918    2.4513e-04
  101380.918    2.2680e-04
  101599.918    2.2970e-04
  101818.918    4.3775e-04
  102037.918    6.4580e-04
  102256.918    7.5448e-04
  102475.918    8.5585e-04
  102694.918    6.9417e-04
  102913.918    4.5357e-04
  103132.918    3.5900e-04
  103351.918    3.5900e-04
  103570.918    3.5900e-04
  103789.918    3.5900e-04
  104008.918    3.5900e-04
  104227.918    3.5900e-04
  104446.918    3.5900e-04
  104665.918    3.5900e-04
  104884.918    3.5900e-04
  105103.918    3.5900e-04
  105322.918    3.5900e-04
  105541.918    3.5900e-04
  105760.918    3.5900e-04
  105979.918    3.5900e-04
  106198.918    3.5900e-04
  106417.918    3.5900e-04
  106636.918    3.5900e-04
  106855.918    3.5900e-04
  107074.918    3.5900e-04
  107293.918    3.5900e-04
  107512.918    3.5900e-04
  107731.918    3.5900e-04
  107950.918    3.5900e-04
  108169.918    3.5900e-04
  108388.918    3.5900e-04
  108607.918    3.5900e-04
  108826.918    3.5900e-04
  109045.918    3.5900e-04
  109264.918    3.5900e-04
  109483.918    3.5900e-04
  109702.918    3.5900e-04
  109921.918    3.5900e-04
  110140.918    3.5900e-04
  110359.918    3.5900e-04
  110578.918    3.5900e-04
  110797.918    3.5900e-04
  111016.918    3.5900e-04
  111235.918    3.5900e-04
  111454.918    3.5900e-04
  111673.918    3.5900e-04
  111892.918    3.5900e-04
  112111.918  0.
